# Created: 2019-11-28 16:15:30.281813
# rshift intensity
13.5527 0.023339999999999694
13.8821 0.02666999999999975
14.2095 0.013339999999999907
14.5367 0.033339999999999925
14.864 0.009999999999999787
15.1913 0.0
15.5186 0.013339999999999907
15.8458 0.013339999999999907
16.173 0.02666999999999975
16.5003 0.029999999999999805
16.8275 0.020000000000000018
17.1547 0.029999999999999805
17.4819 0.029999999999999805
17.809 0.040000000000000036
18.1362 0.04666999999999977
18.4634 0.05333999999999994
18.7905 0.040000000000000036
19.1176 0.03666999999999998
19.4448 0.040000000000000036
19.7719 0.04666999999999977
20.1011 0.033339999999999925
20.4282 0.03666999999999998
20.7553 0.020000000000000018
21.0823 0.023339999999999694
21.4094 0.040000000000000036
21.7364 0.05333999999999994
22.0635 0.040000000000000036
22.3905 0.029999999999999805
22.7175 0.05999999999999961
23.0445 0.04999999999999982
23.3715 0.02666999999999975
23.6985 0.05333999999999994
24.0254 0.03666999999999998
24.3524 0.05333999999999994
24.6793 0.04666999999999977
25.0062 0.029999999999999805
25.3331 0.04333999999999971
25.6601 0.04999999999999982
25.9869 0.020000000000000018
26.3138 0.05333999999999994
26.6407 0.023339999999999694
26.9676 0.04666999999999977
27.2944 0.02666999999999975
27.6212 0.023339999999999694
27.9481 0.02666999999999975
28.2727 0.033339999999999925
28.5995 0.029999999999999805
28.9263 0.040000000000000036
29.2531 0.04999999999999982
29.5799 0.040000000000000036
29.9066 0.029999999999999805
30.2334 0.04333999999999971
30.5601 0.040000000000000036
30.8868 0.05333999999999994
31.2135 0.040000000000000036
31.5402 0.03666999999999998
31.8669 0.03666999999999998
32.1936 0.02666999999999975
32.5203 0.03666999999999998
32.8469 0.04333999999999971
33.1736 0.04666999999999977
33.5002 0.040000000000000036
33.8268 0.04333999999999971
34.1513 0.04999999999999982
34.4779 0.040000000000000036
34.8045 0.033339999999999925
35.1311 0.033339999999999925
35.4576 0.03666999999999998
35.7842 0.05333999999999994
36.1107 0.023339999999999694
36.4372 0.04333999999999971
36.7638 0.040000000000000036
37.0903 0.05667
37.4168 0.05333999999999994
37.7432 0.04333999999999971
38.0676 0.04666999999999977
38.394 0.03666999999999998
38.7205 0.06333999999999973
39.0469 0.06666999999999978
39.3733 0.023339999999999694
39.6998 0.05999999999999961
40.0262 0.033339999999999925
40.3526 0.023339999999999694
40.6768 0.03666999999999998
41.0032 0.02666999999999975
41.3295 0.040000000000000036
41.6559 0.05667
41.9822 0.029999999999999805
42.3085 0.05333999999999994
42.6348 0.040000000000000036
42.9611 0.040000000000000036
43.2853 0.05999999999999961
43.6116 0.04666999999999977
43.9378 0.04333999999999971
44.2641 0.05999999999999961
44.5903 0.06666999999999978
44.9166 0.04666999999999977
45.2428 0.04333999999999971
45.5669 0.04666999999999977
45.8931 0.04666999999999977
46.2193 0.05333999999999994
46.5454 0.040000000000000036
46.8716 0.05333999999999994
47.1978 0.05333999999999994
47.5218 0.05999999999999961
47.8479 0.05667
48.174 0.040000000000000036
48.5001 0.05667
48.8262 0.04999999999999982
49.1502 0.05667
49.4762 0.05999999999999961
49.8023 0.04333999999999971
50.1284 0.06666999999999978
50.4544 0.033339999999999925
50.7783 0.07667000000000002
51.1043 0.06999999999999984
51.4303 0.06999999999999984
51.7563 0.06999999999999984
52.0823 0.06333999999999973
52.4061 0.05667
52.7321 0.06999999999999984
53.058 0.08333999999999975
53.384 0.029999999999999805
53.7099 0.06999999999999984
54.0337 0.07333999999999996
54.3596 0.06999999999999984
54.6855 0.08999999999999986
55.0114 0.05333999999999994
55.3351 0.05999999999999961
55.6609 0.06666999999999978
55.9868 0.05333999999999994
56.3126 0.06999999999999984
56.6363 0.07333999999999996
56.9621 0.04999999999999982
57.2879 0.07667000000000002
57.6137 0.06666999999999978
57.9374 0.06999999999999984
58.2631 0.06999999999999984
58.5889 0.07333999999999996
58.9146 0.08999999999999986
59.2382 0.06333999999999973
59.564 0.06666999999999978
59.8897 0.05999999999999961
60.2154 0.04333999999999971
60.5389 0.07333999999999996
60.8646 0.06666999999999978
61.1903 0.07333999999999996
61.5159 0.07333999999999996
61.8394 0.06333999999999973
62.1651 0.09667000000000003
62.4907 0.06666999999999978
62.8142 0.0866699999999998
63.1398 0.06333999999999973
63.4654 0.07333999999999996
63.7909 0.05333999999999994
64.1144 0.09999999999999964
64.4399 0.05333999999999994
64.7655 0.05333999999999994
65.0889 0.07667000000000002
65.4144 0.04999999999999982
65.7399 0.06333999999999973
66.0632 0.06666999999999978
66.3887 0.04666999999999977
66.7142 0.06666999999999978
67.0375 0.040000000000000036
67.363 0.05333999999999994
67.6884 0.06999999999999984
68.0117 0.06333999999999973
68.3371 0.07667000000000002
68.6625 0.06999999999999984
68.9858 0.06333999999999973
69.3112 0.06333999999999973
69.6366 0.04333999999999971
69.9598 0.04999999999999982
70.2851 0.07999999999999963
70.6105 0.06999999999999984
70.9337 0.05667
71.259 0.06999999999999984
71.5843 0.08999999999999986
71.9074 0.11334
72.2327 0.11334
72.558 0.12666999999999984
72.8811 0.12666999999999984
73.2064 0.13999999999999968
73.5295 0.1433399999999998
73.8547 0.17666999999999966
74.1799 0.15666999999999964
74.503 0.1599999999999997
74.8282 0.13334000000000001
75.1534 0.16333999999999982
75.4764 0.19666999999999968
75.8016 0.17666999999999966
76.1246 0.20999999999999996
76.4497 0.16333999999999982
76.7748 0.17999999999999972
77.0978 0.20333999999999985
77.4229 0.14666999999999986
77.7459 0.13999999999999968
78.071 0.14666999999999986
78.396 0.12333999999999978
78.7189 0.10999999999999988
79.044 0.07333999999999996
79.3669 0.08333999999999975
79.6919 0.07333999999999996
80.0169 0.07999999999999963
80.3398 0.07333999999999996
80.6648 0.06333999999999973
80.9876 0.07999999999999963
81.3126 0.05667
81.6354 0.06999999999999984
81.9604 0.04333999999999971
82.2853 0.05333999999999994
82.6081 0.08999999999999986
82.933 0.07667000000000002
83.2558 0.07667000000000002
83.5807 0.06333999999999973
83.9034 0.05667
84.2283 0.05999999999999961
84.551 0.07999999999999963
84.8758 0.06333999999999973
85.2007 0.07999999999999963
85.5234 0.06666999999999978
85.8482 0.06999999999999984
86.1708 0.06666999999999978
86.4956 0.05999999999999961
86.8183 0.06999999999999984
87.143 0.06999999999999984
87.4657 0.07333999999999996
87.7904 0.0866699999999998
88.113 0.06999999999999984
88.4377 0.09333999999999998
88.7603 0.0866699999999998
89.085 0.05999999999999961
89.4075 0.07333999999999996
89.7322 0.10333999999999977
90.0547 0.0866699999999998
90.3794 0.09999999999999964
90.7019 0.07999999999999963
91.0265 0.06666999999999978
91.349 0.08999999999999986
91.6736 0.05999999999999961
91.9961 0.05667
92.3207 0.07667000000000002
92.6431 0.07333999999999996
92.9677 0.06333999999999973
93.2901 0.09333999999999998
93.6147 0.06666999999999978
93.937 0.07999999999999963
94.2616 0.07667000000000002
94.5839 0.05667
94.9084 0.0866699999999998
95.2308 0.06999999999999984
95.5553 0.07667000000000002
95.8776 0.0866699999999998
96.202 0.07999999999999963
96.5244 0.06333999999999973
96.8466 0.07999999999999963
97.1711 0.040000000000000036
97.4933 0.05999999999999961
97.8177 0.06333999999999973
98.14 0.07333999999999996
98.4644 0.06666999999999978
98.7866 0.09333999999999998
99.1109 0.07667000000000002
99.4332 0.08333999999999975
99.7553 0.08333999999999975
100.08 0.05999999999999961
100.402 0.05667
100.726 0.07667000000000002
101.048 0.05667
101.373 0.08999999999999986
101.695 0.0866699999999998
102.017 0.06999999999999984
102.341 0.09667000000000003
102.663 0.08333999999999975
102.987 0.07333999999999996
103.309 0.09667000000000003
103.631 0.09999999999999964
103.956 0.10333999999999977
104.278 0.09999999999999964
104.602 0.11666999999999961
104.924 0.06999999999999984
105.246 0.10666999999999982
105.57 0.11999999999999966
105.892 0.09333999999999998
106.214 0.10999999999999988
106.538 0.10333999999999977
106.86 0.11999999999999966
107.184 0.12666999999999984
107.506 0.1299999999999999
107.828 0.11666999999999961
108.152 0.08333999999999975
108.474 0.10666999999999982
108.796 0.09999999999999964
109.12 0.08999999999999986
109.442 0.0866699999999998
109.766 0.09667000000000003
110.087 0.08999999999999986
110.409 0.09333999999999998
110.733 0.09999999999999964
111.055 0.07667000000000002
111.377 0.06999999999999984
111.701 0.11666999999999961
112.023 0.09667000000000003
112.344 0.08999999999999986
112.668 0.08333999999999975
112.99 0.08999999999999986
113.312 0.07999999999999963
113.635 0.09333999999999998
113.957 0.08333999999999975
114.279 0.09333999999999998
114.603 0.07667000000000002
114.924 0.09333999999999998
115.246 0.07667000000000002
115.568 0.09333999999999998
115.891 0.08333999999999975
116.213 0.09333999999999998
116.535 0.09333999999999998
116.858 0.08333999999999975
117.18 0.08333999999999975
117.502 0.07333999999999996
117.825 0.09999999999999964
118.147 0.08333999999999975
118.468 0.08333999999999975
118.79 0.10999999999999988
119.114 0.09333999999999998
119.435 0.09333999999999998
119.757 0.10666999999999982
120.08 0.07667000000000002
120.402 0.07667000000000002
120.723 0.07333999999999996
121.045 0.08999999999999986
121.368 0.07333999999999996
121.69 0.07999999999999963
122.011 0.0866699999999998
122.333 0.09999999999999964
122.656 0.0866699999999998
122.977 0.06666999999999978
123.299 0.0866699999999998
123.62 0.08999999999999986
123.944 0.08999999999999986
124.265 0.06999999999999984
124.586 0.06999999999999984
124.908 0.08333999999999975
125.231 0.10666999999999982
125.553 0.06999999999999984
125.874 0.09667000000000003
126.195 0.07999999999999963
126.518 0.06999999999999984
126.84 0.08333999999999975
127.161 0.09333999999999998
127.482 0.07667000000000002
127.803 0.09667000000000003
128.127 0.11666999999999961
128.448 0.09999999999999964
128.769 0.09999999999999964
129.09 0.11666999999999961
129.412 0.09333999999999998
129.735 0.09667000000000003
130.056 0.0866699999999998
130.377 0.11334
130.698 0.0866699999999998
131.019 0.09333999999999998
131.343 0.10666999999999982
131.664 0.09667000000000003
131.985 0.10666999999999982
132.306 0.1299999999999999
132.627 0.11334
132.95 0.1299999999999999
133.271 0.10999999999999988
133.592 0.11334
133.913 0.10666999999999982
134.234 0.09333999999999998
134.555 0.09667000000000003
134.878 0.08333999999999975
135.199 0.08333999999999975
135.52 0.08999999999999986
135.841 0.09667000000000003
136.162 0.09999999999999964
136.483 0.08333999999999975
136.804 0.09999999999999964
137.127 0.07667000000000002
137.448 0.06333999999999973
137.769 0.08333999999999975
138.09 0.08999999999999986
138.411 0.0866699999999998
138.731 0.09999999999999964
139.052 0.10333999999999977
139.375 0.08999999999999986
139.696 0.0866699999999998
140.017 0.09667000000000003
140.338 0.11666999999999961
140.658 0.10666999999999982
140.979 0.11666999999999961
141.3 0.10999999999999988
141.621 0.11999999999999966
141.941 0.11999999999999966
142.264 0.13334000000000001
142.585 0.11334
142.906 0.10666999999999982
143.226 0.10666999999999982
143.547 0.10999999999999988
143.868 0.12333999999999978
144.189 0.12333999999999978
144.509 0.13334000000000001
144.83 0.11334
145.15 0.09999999999999964
145.471 0.10333999999999977
145.794 0.11666999999999961
146.114 0.1299999999999999
146.435 0.10999999999999988
146.756 0.11999999999999966
147.076 0.10999999999999988
147.397 0.09667000000000003
147.717 0.09999999999999964
148.038 0.11666999999999961
148.358 0.11334
148.679 0.0866699999999998
148.999 0.09667000000000003
149.32 0.09667000000000003
149.64 0.08999999999999986
149.961 0.10999999999999988
150.281 0.09667000000000003
150.602 0.11999999999999966
150.922 0.10666999999999982
151.242 0.07999999999999963
151.563 0.09667000000000003
151.883 0.09999999999999964
152.206 0.09999999999999964
152.526 0.09667000000000003
152.847 0.09667000000000003
153.167 0.11666999999999961
153.487 0.1299999999999999
153.808 0.10999999999999988
154.128 0.10666999999999982
154.448 0.10333999999999977
154.769 0.11334
155.089 0.09333999999999998
155.409 0.1299999999999999
155.729 0.10333999999999977
156.05 0.12333999999999978
156.37 0.08999999999999986
156.69 0.0866699999999998
157.01 0.08333999999999975
157.331 0.09333999999999998
157.651 0.10666999999999982
157.971 0.13334000000000001
158.291 0.07333999999999996
158.609 0.12666999999999984
158.929 0.09999999999999964
159.25 0.10999999999999988
159.57 0.09999999999999964
159.89 0.11666999999999961
160.21 0.11666999999999961
160.53 0.09999999999999964
160.85 0.07667000000000002
161.17 0.11334
161.49 0.10999999999999988
161.81 0.10333999999999977
162.13 0.09333999999999998
162.45 0.10666999999999982
162.77 0.11334
163.09 0.1299999999999999
163.41 0.1299999999999999
163.73 0.10666999999999982
164.05 0.10999999999999988
164.37 0.10666999999999982
164.69 0.09667000000000003
165.008 0.11666999999999961
165.328 0.12666999999999984
165.648 0.12666999999999984
165.968 0.10999999999999988
166.288 0.10666999999999982
166.608 0.1299999999999999
166.928 0.10666999999999982
167.248 0.09999999999999964
167.567 0.12333999999999978
167.887 0.13334000000000001
168.207 0.13999999999999968
168.527 0.10333999999999977
168.845 0.1299999999999999
169.164 0.11666999999999961
169.484 0.13999999999999968
169.804 0.09667000000000003
170.124 0.12333999999999978
170.444 0.1299999999999999
170.763 0.11999999999999966
171.083 0.13334000000000001
171.401 0.12333999999999978
171.72 0.1299999999999999
172.04 0.10666999999999982
172.36 0.10666999999999982
172.679 0.10999999999999988
172.999 0.10333999999999977
173.319 0.09999999999999964
173.638 0.12333999999999978
173.956 0.10666999999999982
174.276 0.11666999999999961
174.595 0.11666999999999961
174.915 0.1299999999999999
175.234 0.11334
175.554 0.12333999999999978
175.871 0.11999999999999966
176.191 0.10333999999999977
176.511 0.11999999999999966
176.83 0.09999999999999964
177.15 0.13666999999999963
177.469 0.12333999999999978
177.787 0.11666999999999961
178.106 0.1299999999999999
178.426 0.10333999999999977
178.745 0.09667000000000003
179.065 0.10999999999999988
179.384 0.12333999999999978
179.701 0.1299999999999999
180.021 0.09999999999999964
180.34 0.10666999999999982
180.66 0.11334
180.979 0.10333999999999977
181.296 0.12333999999999978
181.616 0.11666999999999961
181.935 0.11334
182.254 0.09999999999999964
182.574 0.13999999999999968
182.891 0.10999999999999988
183.21 0.10666999999999982
183.53 0.13334000000000001
183.849 0.10666999999999982
184.166 0.11334
184.485 0.09999999999999964
184.805 0.09667000000000003
185.124 0.10333999999999977
185.443 0.0866699999999998
185.76 0.11334
186.079 0.10666999999999982
186.399 0.09999999999999964
186.718 0.12666999999999984
187.035 0.12333999999999978
187.354 0.10666999999999982
187.673 0.11999999999999966
187.993 0.07999999999999963
188.31 0.1299999999999999
188.629 0.12333999999999978
188.948 0.10666999999999982
189.265 0.13666999999999963
189.584 0.11666999999999961
189.903 0.10999999999999988
190.222 0.08333999999999975
190.539 0.10333999999999977
190.858 0.09333999999999998
191.177 0.11666999999999961
191.496 0.11334
191.813 0.07999999999999963
192.132 0.09999999999999964
192.451 0.12333999999999978
192.768 0.1433399999999998
193.087 0.11334
193.406 0.11666999999999961
193.725 0.11999999999999966
194.042 0.10333999999999977
194.361 0.13666999999999963
194.68 0.11334
194.997 0.10333999999999977
195.315 0.08999999999999986
195.634 0.09999999999999964
195.951 0.10666999999999982
196.27 0.11666999999999961
196.589 0.09667000000000003
196.906 0.09999999999999964
197.224 0.12333999999999978
197.543 0.11666999999999961
197.86 0.11999999999999966
198.179 0.09667000000000003
198.498 0.10333999999999977
198.814 0.11334
199.133 0.12666999999999984
199.452 0.12666999999999984
199.768 0.12666999999999984
200.087 0.09333999999999998
200.406 0.11999999999999966
200.723 0.11999999999999966
201.041 0.1299999999999999
201.36 0.12333999999999978
201.677 0.10999999999999988
201.995 0.11999999999999966
202.312 0.13666999999999963
202.63 0.1299999999999999
202.949 0.11666999999999961
203.266 0.11999999999999966
203.584 0.13999999999999968
203.903 0.1299999999999999
204.219 0.11334
204.538 0.1299999999999999
204.854 0.11334
205.173 0.12333999999999978
205.492 0.12333999999999978
205.808 0.13666999999999963
206.127 0.1299999999999999
206.443 0.1299999999999999
206.762 0.12333999999999978
207.08 0.13666999999999963
207.396 0.11999999999999966
207.715 0.11999999999999966
208.031 0.1299999999999999
208.35 0.1299999999999999
208.666 0.12333999999999978
208.984 0.11334
209.303 0.12666999999999984
209.619 0.10666999999999982
209.938 0.13999999999999968
210.254 0.11999999999999966
210.572 0.10666999999999982
210.889 0.11999999999999966
211.207 0.10333999999999977
211.525 0.11666999999999961
211.842 0.1433399999999998
212.16 0.1433399999999998
212.476 0.12333999999999978
212.794 0.14666999999999986
213.111 0.11999999999999966
213.429 0.12666999999999984
213.745 0.1433399999999998
214.063 0.1299999999999999
214.379 0.11334
214.698 0.10666999999999982
215.016 0.12333999999999978
215.332 0.12666999999999984
215.65 0.1433399999999998
215.966 0.1433399999999998
216.285 0.10333999999999977
216.601 0.1299999999999999
216.919 0.10666999999999982
217.235 0.13999999999999968
217.553 0.13999999999999968
217.869 0.13999999999999968
218.187 0.16999999999999993
218.503 0.09999999999999964
218.821 0.13334000000000001
219.137 0.1299999999999999
219.455 0.16999999999999993
219.771 0.15666999999999964
220.089 0.1499999999999999
220.405 0.1433399999999998
220.723 0.16999999999999993
221.039 0.1433399999999998
221.357 0.19666999999999968
221.673 0.1599999999999997
221.991 0.16666999999999987
222.307 0.15334000000000003
222.623 0.18999999999999995
222.941 0.17999999999999972
223.257 0.18999999999999995
223.575 0.1733399999999996
223.891 0.19333999999999962
224.208 0.18333999999999984
224.524 0.18333999999999984
224.842 0.13999999999999968
225.158 0.19666999999999968
225.476 0.19999999999999973
225.792 0.1866699999999999
226.107 0.19999999999999973
226.425 0.16999999999999993
226.741 0.11999999999999966
227.059 0.1299999999999999
227.374 0.16333999999999982
227.692 0.17666999999999966
228.008 0.16333999999999982
228.324 0.16999999999999993
228.641 0.13666999999999963
228.957 0.13334000000000001
229.275 0.13666999999999963
229.59 0.11666999999999961
229.908 0.13334000000000001
230.224 0.13666999999999963
230.539 0.13666999999999963
230.857 0.15334000000000003
231.173 0.15666999999999964
231.49 0.16666999999999987
231.806 0.16999999999999993
232.121 0.14666999999999986
232.439 0.1499999999999999
232.755 0.12666999999999984
233.072 0.11334
233.388 0.15666999999999964
233.703 0.1299999999999999
234.021 0.1433399999999998
234.336 0.13334000000000001
234.652 0.15666999999999964
234.969 0.12333999999999978
235.285 0.1499999999999999
235.6 0.13999999999999968
235.918 0.10999999999999988
236.233 0.1433399999999998
236.551 0.13999999999999968
236.866 0.1499999999999999
237.181 0.11999999999999966
237.499 0.16333999999999982
237.814 0.1599999999999997
238.129 0.1299999999999999
238.447 0.14666999999999986
238.762 0.13666999999999963
239.077 0.14666999999999986
239.395 0.1299999999999999
239.71 0.11999999999999966
240.025 0.1299999999999999
240.343 0.13666999999999963
240.658 0.1433399999999998
240.973 0.10999999999999988
241.291 0.15666999999999964
241.606 0.15334000000000003
241.921 0.16333999999999982
242.238 0.1433399999999998
242.554 0.16333999999999982
242.869 0.1499999999999999
243.184 0.14666999999999986
243.501 0.15666999999999964
243.816 0.11999999999999966
244.131 0.16999999999999993
244.449 0.1599999999999997
244.764 0.14666999999999986
245.079 0.1599999999999997
245.394 0.19999999999999973
245.711 0.16666999999999987
246.026 0.1433399999999998
246.341 0.1733399999999996
246.659 0.15334000000000003
246.974 0.15666999999999964
247.289 0.1733399999999996
247.604 0.13666999999999963
247.921 0.15334000000000003
248.236 0.14666999999999986
248.551 0.13334000000000001
248.866 0.16999999999999993
249.183 0.15334000000000003
249.498 0.18999999999999995
249.813 0.14666999999999986
250.128 0.16999999999999993
250.445 0.13666999999999963
250.76 0.1433399999999998
251.074 0.1599999999999997
251.389 0.13334000000000001
251.706 0.1866699999999999
252.021 0.16333999999999982
252.336 0.20999999999999996
252.651 0.17666999999999966
252.968 0.18333999999999984
253.283 0.17666999999999966
253.597 0.16666999999999987
253.912 0.18333999999999984
254.227 0.1733399999999996
254.544 0.1599999999999997
254.859 0.1499999999999999
255.173 0.16333999999999982
255.488 0.1733399999999996
255.803 0.16999999999999993
256.12 0.18333999999999984
256.435 0.19333999999999962
256.749 0.1733399999999996
257.064 0.17999999999999972
257.379 0.18333999999999984
257.695 0.16999999999999993
258.01 0.1499999999999999
258.325 0.17666999999999966
258.639 0.16999999999999993
258.954 0.16999999999999993
259.269 0.16666999999999987
259.585 0.1499999999999999
259.9 0.15666999999999964
260.215 0.17666999999999966
260.529 0.15666999999999964
260.844 0.15666999999999964
261.158 0.1599999999999997
261.475 0.15334000000000003
261.789 0.13999999999999968
262.104 0.14666999999999986
262.418 0.13666999999999963
262.733 0.16666999999999987
263.047 0.12666999999999984
263.362 0.15666999999999964
263.678 0.14666999999999986
263.993 0.15334000000000003
264.307 0.12333999999999978
264.622 0.15334000000000003
264.936 0.12666999999999984
265.251 0.14666999999999986
265.565 0.13666999999999963
265.88 0.14666999999999986
266.196 0.14666999999999986
266.51 0.12666999999999984
266.825 0.14666999999999986
267.139 0.13334000000000001
267.453 0.13666999999999963
267.768 0.1433399999999998
268.082 0.14666999999999986
268.396 0.16666999999999987
268.711 0.1599999999999997
269.025 0.13334000000000001
269.341 0.16333999999999982
269.656 0.13666999999999963
269.97 0.15334000000000003
270.284 0.13666999999999963
270.598 0.1499999999999999
270.913 0.16333999999999982
271.227 0.1499999999999999
271.541 0.17999999999999972
271.855 0.15334000000000003
272.169 0.1299999999999999
272.484 0.13999999999999968
272.798 0.12666999999999984
273.112 0.15666999999999964
273.426 0.1433399999999998
273.742 0.14666999999999986
274.056 0.14666999999999986
274.371 0.1433399999999998
274.685 0.15334000000000003
274.999 0.14666999999999986
275.313 0.15666999999999964
275.627 0.1299999999999999
275.941 0.17666999999999966
276.255 0.1499999999999999
276.569 0.12333999999999978
276.883 0.1599999999999997
277.197 0.15334000000000003
277.511 0.1499999999999999
277.825 0.13666999999999963
278.139 0.18333999999999984
278.453 0.13334000000000001
278.767 0.13666999999999963
279.081 0.15666999999999964
279.395 0.15334000000000003
279.709 0.16333999999999982
280.023 0.16333999999999982
280.337 0.17666999999999966
280.651 0.20333999999999985
280.964 0.16666999999999987
281.278 0.13666999999999963
281.592 0.1599999999999997
281.906 0.1866699999999999
282.22 0.17666999999999966
282.534 0.19333999999999962
282.848 0.16999999999999993
283.161 0.1733399999999996
283.475 0.1599999999999997
283.789 0.19666999999999968
284.103 0.16999999999999993
284.417 0.13666999999999963
284.73 0.1733399999999996
285.044 0.14666999999999986
285.358 0.1733399999999996
285.671 0.16666999999999987
285.985 0.1599999999999997
286.297 0.15666999999999964
286.611 0.14666999999999986
286.924 0.1433399999999998
287.238 0.13666999999999963
287.552 0.1499999999999999
287.865 0.16999999999999993
288.179 0.16666999999999987
288.492 0.17666999999999966
288.806 0.17666999999999966
289.12 0.16999999999999993
289.433 0.15666999999999964
289.747 0.13999999999999968
290.06 0.17666999999999966
290.374 0.1733399999999996
290.685 0.15334000000000003
290.999 0.1599999999999997
291.313 0.1433399999999998
291.626 0.13999999999999968
291.94 0.17999999999999972
292.253 0.1499999999999999
292.567 0.13999999999999968
292.88 0.16333999999999982
293.194 0.1599999999999997
293.507 0.13334000000000001
293.818 0.16666999999999987
294.132 0.13666999999999963
294.445 0.19333999999999962
294.759 0.1299999999999999
295.072 0.1433399999999998
295.385 0.15334000000000003
295.699 0.16333999999999982
296.012 0.13999999999999968
296.324 0.15666999999999964
296.637 0.1499999999999999
296.95 0.15334000000000003
297.264 0.19999999999999973
297.577 0.1433399999999998
297.89 0.16666999999999987
298.204 0.17666999999999966
298.515 0.1433399999999998
298.828 0.15334000000000003
299.141 0.16666999999999987
299.455 0.1433399999999998
299.768 0.1599999999999997
300.081 0.1299999999999999
300.394 0.16666999999999987
300.705 0.16333999999999982
301.019 0.14666999999999986
301.332 0.16666999999999987
301.645 0.16999999999999993
301.958 0.17999999999999972
302.269 0.18333999999999984
302.582 0.13999999999999968
302.896 0.13999999999999968
303.209 0.1499999999999999
303.522 0.16999999999999993
303.833 0.1433399999999998
304.146 0.1733399999999996
304.459 0.14666999999999986
304.772 0.1499999999999999
305.085 0.1599999999999997
305.396 0.1599999999999997
305.709 0.16999999999999993
306.022 0.1499999999999999
306.335 0.15666999999999964
306.648 0.16666999999999987
306.959 0.19333999999999962
307.272 0.14666999999999986
307.585 0.1499999999999999
307.898 0.13999999999999968
308.209 0.15666999999999964
308.522 0.16999999999999993
308.835 0.16333999999999982
309.148 0.15334000000000003
309.461 0.16333999999999982
309.772 0.1866699999999999
310.085 0.16666999999999987
310.397 0.18333999999999984
310.71 0.16999999999999993
311.021 0.1499999999999999
311.334 0.16999999999999993
311.647 0.1733399999999996
311.958 0.14666999999999986
312.27 0.13999999999999968
312.583 0.16333999999999982
312.896 0.1599999999999997
313.207 0.1599999999999997
313.519 0.15666999999999964
313.832 0.17666999999999966
314.145 0.16333999999999982
314.456 0.18333999999999984
314.768 0.1499999999999999
315.081 0.16666999999999987
315.392 0.18999999999999995
315.704 0.16666999999999987
316.017 0.1599999999999997
316.328 0.14666999999999986
316.641 0.1433399999999998
316.953 0.19666999999999968
317.266 0.16666999999999987
317.576 0.16666999999999987
317.889 0.15666999999999964
318.202 0.16666999999999987
318.512 0.16999999999999993
318.825 0.17666999999999966
319.137 0.17999999999999972
319.448 0.20999999999999996
319.76 0.18999999999999995
320.073 0.1599999999999997
320.383 0.19333999999999962
320.696 0.16666999999999987
321.009 0.18333999999999984
321.319 0.18999999999999995
321.632 0.1599999999999997
321.944 0.1599999999999997
322.254 0.15666999999999964
322.567 0.1866699999999999
322.879 0.16333999999999982
323.19 0.18999999999999995
323.502 0.19333999999999962
323.813 0.21333999999999964
324.125 0.16999999999999993
324.437 0.1733399999999996
324.748 0.17666999999999966
325.06 0.18999999999999995
325.372 0.1599999999999997
325.683 0.2066699999999999
325.995 0.20999999999999996
326.305 0.20333999999999985
326.618 0.18333999999999984
326.93 0.1866699999999999
327.24 0.19666999999999968
327.553 0.2066699999999999
327.865 0.19666999999999968
328.175 0.20333999999999985
328.487 0.23999999999999977
328.798 0.23333999999999966
329.11 0.23666999999999971
329.422 0.2433399999999999
329.732 0.25666999999999973
330.044 0.22333999999999987
330.355 0.2599999999999998
330.667 0.2933399999999997
330.977 0.2599999999999998
331.289 0.27
331.601 0.26666999999999996
331.911 0.2633399999999999
332.224 0.29000000000000004
332.534 0.28667
332.846 0.24666999999999994
333.156 0.24666999999999994
333.468 0.2799999999999998
333.778 0.23333999999999966
334.09 0.2433399999999999
334.402 0.2166699999999997
334.712 0.2166699999999997
335.024 0.2166699999999997
335.334 0.2066699999999999
335.646 0.21999999999999975
335.956 0.2166699999999997
336.268 0.22999999999999998
336.578 0.20333999999999985
336.89 0.22333999999999987
337.2 0.19999999999999973
337.512 0.1499999999999999
337.822 0.20999999999999996
338.134 0.20333999999999985
338.444 0.17666999999999966
338.755 0.2066699999999999
339.065 0.18333999999999984
339.377 0.21333999999999964
339.687 0.1733399999999996
339.999 0.1866699999999999
340.309 0.19666999999999968
340.621 0.2166699999999997
340.93 0.17999999999999972
341.242 0.19999999999999973
341.552 0.21333999999999964
341.864 0.18333999999999984
342.174 0.20333999999999985
342.485 0.19999999999999973
342.795 0.20999999999999996
343.107 0.2066699999999999
343.417 0.21333999999999964
343.728 0.2166699999999997
344.038 0.20333999999999985
344.35 0.20333999999999985
344.659 0.18999999999999995
344.971 0.21333999999999964
345.281 0.23333999999999966
345.592 0.22999999999999998
345.902 0.22999999999999998
346.212 0.22666999999999993
346.523 0.21999999999999975
346.833 0.22333999999999987
347.145 0.23999999999999977
347.454 0.19666999999999968
347.766 0.20999999999999996
348.075 0.2433399999999999
348.387 0.2066699999999999
348.696 0.24666999999999994
349.006 0.18333999999999984
349.318 0.20999999999999996
349.627 0.22666999999999993
349.939 0.20333999999999985
350.248 0.22666999999999993
350.557 0.2066699999999999
350.869 0.18333999999999984
351.178 0.21333999999999964
351.49 0.2066699999999999
351.799 0.1866699999999999
352.109 0.19333999999999962
352.42 0.22333999999999987
352.73 0.19999999999999973
353.041 0.2066699999999999
353.35 0.20333999999999985
353.66 0.21333999999999964
353.971 0.21999999999999975
354.28 0.2066699999999999
354.592 0.21333999999999964
354.901 0.19333999999999962
355.211 0.22999999999999998
355.522 0.21333999999999964
355.831 0.20999999999999996
356.14 0.19999999999999973
356.452 0.21999999999999975
356.761 0.2166699999999997
357.07 0.21999999999999975
357.382 0.1866699999999999
357.691 0.22333999999999987
358.002 0.2166699999999997
358.311 0.21333999999999964
358.62 0.2066699999999999
358.932 0.2066699999999999
359.241 0.21999999999999975
359.55 0.21999999999999975
359.861 0.18999999999999995
360.17 0.2066699999999999
360.479 0.1866699999999999
360.791 0.2066699999999999
361.1 0.20333999999999985
361.409 0.22333999999999987
361.72 0.2066699999999999
362.029 0.20333999999999985
362.338 0.22333999999999987
362.647 0.18999999999999995
362.958 0.20333999999999985
363.267 0.22999999999999998
363.576 0.19333999999999962
363.887 0.22333999999999987
364.196 0.17999999999999972
364.505 0.1866699999999999
364.816 0.21333999999999964
365.125 0.2066699999999999
365.434 0.19666999999999968
365.743 0.22333999999999987
366.054 0.15334000000000003
366.363 0.20333999999999985
366.672 0.17999999999999972
366.981 0.18333999999999984
367.292 0.22999999999999998
367.601 0.18999999999999995
367.91 0.2066699999999999
368.221 0.17999999999999972
368.53 0.2166699999999997
368.838 0.20333999999999985
369.147 0.2166699999999997
369.458 0.22333999999999987
369.767 0.19999999999999973
370.076 0.16999999999999993
370.385 0.21999999999999975
370.695 0.18333999999999984
371.004 0.20333999999999985
371.313 0.1866699999999999
371.622 0.21333999999999964
371.93 0.19999999999999973
372.241 0.2166699999999997
372.55 0.19999999999999973
372.859 0.19999999999999973
373.167 0.24666999999999994
373.478 0.16999999999999993
373.787 0.20333999999999985
374.095 0.20999999999999996
374.404 0.20999999999999996
374.713 0.19666999999999968
375.023 0.19666999999999968
375.332 0.20333999999999985
375.641 0.23999999999999977
375.949 0.2066699999999999
376.258 0.20333999999999985
376.569 0.2066699999999999
376.877 0.20333999999999985
377.186 0.22666999999999993
377.494 0.19333999999999962
377.803 0.18999999999999995
378.111 0.21333999999999964
378.422 0.22666999999999993
378.73 0.22333999999999987
379.039 0.23999999999999977
379.347 0.2166699999999997
379.656 0.2166699999999997
379.964 0.20333999999999985
380.275 0.21333999999999964
380.583 0.2166699999999997
380.892 0.2166699999999997
381.2 0.22999999999999998
381.509 0.22999999999999998
381.817 0.21333999999999964
382.128 0.21333999999999964
382.436 0.22999999999999998
382.744 0.1866699999999999
383.053 0.22999999999999998
383.361 0.23999999999999977
383.669 0.22333999999999987
383.978 0.23666999999999971
384.286 0.23333999999999966
384.596 0.22666999999999993
384.905 0.2433399999999999
385.213 0.2166699999999997
385.521 0.23333999999999966
385.83 0.23333999999999966
386.138 0.23666999999999971
386.446 0.2166699999999997
386.754 0.2166699999999997
387.063 0.21333999999999964
387.373 0.21333999999999964
387.681 0.21999999999999975
387.989 0.2433399999999999
388.297 0.2166699999999997
388.606 0.21999999999999975
388.914 0.25
389.222 0.21999999999999975
389.53 0.22333999999999987
389.838 0.25
390.146 0.20999999999999996
390.454 0.23333999999999966
390.763 0.23999999999999977
391.071 0.2599999999999998
391.381 0.20999999999999996
391.689 0.2599999999999998
391.997 0.22666999999999993
392.305 0.2799999999999998
392.613 0.2433399999999999
392.921 0.27666999999999975
393.229 0.21999999999999975
393.537 0.26666999999999996
393.845 0.22999999999999998
394.153 0.2433399999999999
394.461 0.22666999999999993
394.769 0.27
395.077 0.2533399999999997
395.385 0.2533399999999997
395.693 0.2433399999999999
396.001 0.21999999999999975
396.309 0.24666999999999994
396.617 0.22999999999999998
396.925 0.23999999999999977
397.233 0.22999999999999998
397.54 0.2599999999999998
397.848 0.22666999999999993
398.156 0.2166699999999997
398.464 0.21333999999999964
398.772 0.21999999999999975
399.08 0.2166699999999997
399.387 0.2433399999999999
399.695 0.25
400.003 0.24666999999999994
400.311 0.22999999999999998
400.619 0.23333999999999966
400.926 0.23999999999999977
401.234 0.24666999999999994
401.542 0.22666999999999993
401.85 0.2066699999999999
402.157 0.22333999999999987
402.465 0.26666999999999996
402.773 0.2433399999999999
403.081 0.23333999999999966
403.388 0.21333999999999964
403.696 0.2633399999999999
404.004 0.22666999999999993
404.311 0.24666999999999994
404.619 0.2599999999999998
404.926 0.25
405.234 0.21333999999999964
405.542 0.2733399999999997
405.847 0.23333999999999966
406.155 0.23999999999999977
406.462 0.2533399999999997
406.77 0.2533399999999997
407.078 0.2799999999999998
407.385 0.25666999999999973
407.693 0.2599999999999998
408.0 0.25
408.308 0.27
408.615 0.2633399999999999
408.923 0.25
409.23 0.2999999999999998
409.536 0.25
409.843 0.2533399999999997
410.151 0.25
410.458 0.25
410.765 0.27
411.073 0.2933399999999997
411.38 0.2833399999999999
411.688 0.2933399999999997
411.995 0.2733399999999997
412.302 0.2999999999999998
412.608 0.3366699999999998
412.915 0.33333999999999975
413.223 0.32333999999999996
413.53 0.33999999999999986
413.837 0.29666999999999977
414.145 0.29666999999999977
414.452 0.31333999999999973
414.757 0.30333999999999994
415.064 0.36333999999999955
415.372 0.3666699999999996
415.679 0.35333999999999977
415.986 0.38334
416.293 0.43333999999999984
416.601 0.43000000000000016
416.906 0.38334
417.213 0.40666999999999964
417.52 0.41666999999999943
417.828 0.40666999999999964
418.135 0.49333999999999945
418.442 0.47333999999999987
418.747 0.4700000000000002
419.054 0.46667000000000014
419.361 0.46667000000000014
419.668 0.5533399999999999
419.976 0.5899999999999994
420.281 0.6000000000000001
420.588 0.6533399999999996
420.895 0.6800000000000002
421.202 0.6833399999999998
421.509 0.7966700000000002
421.814 0.7866699999999995
422.121 0.8566699999999998
422.428 0.9033399999999996
422.735 0.9333399999999998
423.042 0.9933399999999994
423.347 1.0799999999999996
423.654 1.1166699999999996
423.961 1.1
424.268 1.1166699999999996
424.575 1.2833399999999995
424.88 1.2466699999999995
425.187 1.30334
425.494 1.2999999999999994
425.801 1.3233399999999995
426.106 1.3333400000000002
426.413 1.30667
426.72 1.31
427.026 1.2899999999999996
427.331 1.2433399999999994
427.638 1.22667
427.945 1.2499999999999996
428.252 1.18667
428.557 1.1466699999999999
428.864 1.1433399999999998
429.17 1.0066700000000002
429.477 1.0366699999999995
429.782 0.98
430.089 0.9700000000000002
430.395 0.88334
430.7 0.8533399999999998
431.007 0.7966700000000002
431.314 0.76667
431.62 0.6999999999999997
431.925 0.6599999999999997
432.232 0.6833399999999998
432.539 0.6199999999999997
432.843 0.5899999999999994
433.15 0.5233399999999997
433.457 0.5899999999999994
433.763 0.5100000000000002
434.068 0.5233399999999997
434.374 0.48
434.681 0.4966699999999995
434.986 0.44999999999999973
435.292 0.44999999999999973
435.599 0.41334000000000026
435.903 0.38334
436.21 0.43333999999999984
436.517 0.41334000000000026
436.821 0.43000000000000016
437.128 0.37999999999999945
437.434 0.36999999999999966
437.739 0.3900000000000001
438.045 0.34334
438.352 0.33333999999999975
438.656 0.3299999999999996
438.963 0.3366699999999998
439.269 0.3099999999999996
439.574 0.31333999999999973
439.88 0.31999999999999984
440.184 0.36999999999999966
440.491 0.31999999999999984
440.797 0.31333999999999973
441.102 0.30667
441.408 0.2999999999999998
441.715 0.3099999999999996
442.019 0.32333999999999996
442.325 0.30667
442.63 0.3099999999999996
442.936 0.27666999999999975
443.242 0.2799999999999998
443.547 0.2799999999999998
443.853 0.32333999999999996
444.157 0.26666999999999996
444.464 0.30333999999999994
444.77 0.33999999999999986
445.074 0.2833399999999999
445.38 0.31333999999999973
445.685 0.31333999999999973
445.991 0.2833399999999999
446.297 0.27
446.601 0.2999999999999998
446.908 0.30667
447.212 0.2799999999999998
447.518 0.2999999999999998
447.822 0.3099999999999996
448.128 0.2999999999999998
448.434 0.3299999999999996
448.738 0.2933399999999997
449.045 0.2933399999999997
449.349 0.30333999999999994
449.655 0.3366699999999998
449.959 0.3166699999999998
450.265 0.2933399999999997
450.569 0.28667
450.875 0.31333999999999973
451.181 0.2933399999999997
451.485 0.3366699999999998
451.791 0.32667
452.095 0.33333999999999975
452.401 0.31333999999999973
452.705 0.31999999999999984
453.011 0.29000000000000004
453.315 0.27666999999999975
453.621 0.3099999999999996
453.925 0.30667
454.231 0.27
454.535 0.2833399999999999
454.841 0.32333999999999996
455.145 0.2999999999999998
455.451 0.30333999999999994
455.755 0.2799999999999998
456.061 0.2833399999999999
456.365 0.2933399999999997
456.671 0.2833399999999999
456.975 0.27666999999999975
457.28 0.2599999999999998
457.584 0.28667
457.89 0.2633399999999999
458.194 0.27
458.5 0.26666999999999996
458.804 0.2533399999999997
459.109 0.26666999999999996
459.413 0.27
459.719 0.2733399999999997
460.023 0.26666999999999996
460.328 0.2433399999999999
460.632 0.23666999999999971
460.936 0.2599999999999998
461.242 0.21333999999999964
461.545 0.3166699999999998
461.851 0.25
462.155 0.27
462.46 0.25
462.764 0.2533399999999997
463.07 0.27666999999999975
463.373 0.23666999999999971
463.677 0.2433399999999999
463.983 0.25
464.286 0.25666999999999973
464.592 0.2933399999999997
464.896 0.21333999999999964
465.199 0.2633399999999999
465.505 0.23666999999999971
465.808 0.23999999999999977
466.114 0.2433399999999999
466.417 0.22666999999999993
466.723 0.22999999999999998
467.026 0.25
467.33 0.25666999999999973
467.635 0.2533399999999997
467.939 0.25666999999999973
468.242 0.23999999999999977
468.548 0.2533399999999997
468.851 0.2799999999999998
469.157 0.2433399999999999
469.46 0.27666999999999975
469.764 0.24666999999999994
470.069 0.23666999999999971
470.373 0.29000000000000004
470.676 0.28667
470.981 0.2633399999999999
471.285 0.27
471.59 0.27
471.894 0.30333999999999994
472.197 0.26666999999999996
472.502 0.2433399999999999
472.806 0.29666999999999977
473.109 0.26666999999999996
473.414 0.2799999999999998
473.718 0.2599999999999998
474.021 0.27
474.326 0.2999999999999998
474.629 0.2999999999999998
474.933 0.30667
475.238 0.2833399999999999
475.541 0.30667
475.844 0.31999999999999984
476.15 0.31333999999999973
476.453 0.3166699999999998
476.756 0.33333999999999975
477.061 0.3733400000000002
477.364 0.4033399999999996
477.668 0.4033399999999996
477.971 0.52
478.276 0.5466700000000002
478.579 0.5633399999999997
478.882 0.6466699999999999
479.187 0.6566699999999996
479.49 0.6766700000000001
479.793 0.7033399999999994
480.099 0.6499999999999999
480.402 0.7166700000000001
480.705 0.6766700000000001
481.008 0.6566699999999996
481.313 0.7166700000000001
481.616 0.6599999999999997
481.919 0.7066699999999995
482.222 0.6533399999999996
482.527 0.6633400000000003
482.83 0.7099999999999995
483.133 0.6366700000000001
483.436 0.6533399999999996
483.741 0.6299999999999994
484.044 0.5666699999999998
484.347 0.46667000000000014
484.65 0.41334000000000026
484.955 0.4199999999999995
485.258 0.40666999999999964
485.56 0.3599999999999999
485.863 0.36333999999999955
486.168 0.39666999999999986
486.471 0.3566699999999998
486.774 0.3366699999999998
487.077 0.3299999999999996
487.38 0.3099999999999996
487.685 0.3099999999999996
487.987 0.29666999999999977
488.29 0.2833399999999999
488.593 0.27
488.898 0.27666999999999975
489.201 0.27666999999999975
489.503 0.30333999999999994
489.806 0.29666999999999977
490.109 0.2799999999999998
490.414 0.26666999999999996
490.716 0.23999999999999977
491.019 0.22999999999999998
491.322 0.23999999999999977
491.624 0.25
491.927 0.2633399999999999
492.232 0.25
492.535 0.2633399999999999
492.837 0.23999999999999977
493.14 0.27666999999999975
493.442 0.25
493.745 0.27
494.05 0.2433399999999999
494.352 0.24666999999999994
494.655 0.24666999999999994
494.958 0.2433399999999999
495.26 0.24666999999999994
495.563 0.2733399999999997
495.865 0.22999999999999998
496.17 0.25
496.472 0.26666999999999996
496.775 0.21333999999999964
497.077 0.27666999999999975
497.38 0.24666999999999994
497.682 0.2166699999999997
497.985 0.20999999999999996
498.287 0.2066699999999999
498.592 0.23333999999999966
498.894 0.23666999999999971
499.197 0.2066699999999999
499.499 0.2533399999999997
499.802 0.23666999999999971
500.104 0.21333999999999964
500.406 0.22666999999999993
500.709 0.22666999999999993
501.011 0.22999999999999998
501.316 0.2533399999999997
501.618 0.2433399999999999
501.92 0.2599999999999998
502.223 0.19999999999999973
502.525 0.21999999999999975
502.827 0.22666999999999993
503.13 0.19333999999999962
503.432 0.25
503.734 0.23333999999999966
503.97950000000003 0.21872015103588704
504.284 0.22205515103588713
504.588 0.22705515103588725
504.892 0.2153901510358872
505.198 0.2237251510358872
505.50300000000004 0.22539015103588722
505.807 0.22872015103588728
506.1115 0.24372515103588693
506.41700000000003 0.21872015103588727
506.721 0.2337251510358872
507.025 0.19872515103588706
507.3295 0.23206015103588695
507.6345 0.23206015103588695
507.9385 0.215390151035887
508.243 0.22705515103588725
508.5475 0.23039015103588711
508.8525 0.24372515103588716
509.1565 0.22372015103588716
509.4605 0.21205515103588712
509.7645 0.20706015103588704
510.06899999999996 0.22206015103588717
510.374 0.225390151035887
510.678 0.19372515103588717
510.98199999999997 0.23372515103588698
511.286 0.2287251510358871
511.59000000000003 0.23539015103588695
511.89599999999996 0.2103901510358871
512.2 0.21206015103588693
512.504 0.2287251510358871
512.808 0.21706015103588705
513.1115 0.23205515103588714
513.4165 0.2153901510358872
513.7205 0.2203901510358871
514.0245 0.22705515103588725
514.3285 0.23206015103588695
514.6324999999999 0.22539015103588722
514.9375 0.225390151035887
515.2415000000001 0.237060151035887
515.5455 0.21372015103588715
515.8495 0.22206015103588694
516.1534999999999 0.20372515103588718
516.4575 0.19872515103588706
516.7625 0.21206015103588716
517.066 0.21372515103588696
517.3689999999999 0.2203901510358871
517.673 0.2203901510358871
517.9770000000001 0.21872015103588704
518.281 0.2053901510358872
518.585 0.2370551510358872
518.889 0.20206015103588693
519.193 0.2237251510358872
519.4970000000001 0.2003901510358871
519.8009999999999 0.22705515103588725
520.1045 0.2520551510358871
520.4085 0.2337251510358872
520.712 0.26872515103588707
521.017 0.23872015103588723
521.3205 0.23872515103588704
521.6234999999999 0.2370551510358872
521.9275 0.267055151035887
522.078 0.2620551510358871
522.3815 0.24039015103588707
522.6855 0.2503901510358871
522.989 0.23539015103588717
523.2925 0.24372515103588693
523.5975000000001 0.26872515103588707
523.9010000000001 0.26872015103588726
524.2049999999999 0.2720551510358871
524.5070000000001 0.25706015103588703
524.8109999999999 0.2803901510358871
525.115 0.2520551510358871
525.418 0.2637251510358872
525.722 0.2603901510358871
526.0255 0.2603901510358871
526.329 0.27372515103588696
526.6324999999999 0.28205515103588713
526.9365 0.2503901510358871
527.2394999999999 0.2720551510358871
527.5435 0.24039015103588707
527.8465 0.2753901510358872
528.1505 0.247055151035887
528.4535 0.24372015103588712
528.7565 0.2420601510358869
529.0595 0.24372515103588693
529.3634999999999 0.21872515103588708
529.6665 0.265390151035887
529.9705 0.22872015103588728
530.2735 0.25206015103588714
530.576 0.24039015103588707
530.8795 0.24539015103588718
531.184 0.26706015103588704
531.4875 0.2520551510358871
531.7909999999999 0.2703901510358871
532.094 0.23539015103588695
532.3969999999999 0.26372015103588714
532.7 0.2570551510358872
533.0029999999999 0.22705515103588725
533.307 0.25539015103588697
533.61 0.265390151035887
533.9125 0.24706015103588702
534.2155 0.26372015103588714
534.519 0.25706015103588703
534.8225 0.25372015103588713
535.1255000000001 0.21872515103588708
535.4275 0.24372015103588712
535.7315000000001 0.25872015103588725
536.0345 0.25539015103588697
536.3375000000001 0.23872515103588704
536.6395 0.23539015103588717
536.9435000000001 0.24539015103588696
537.2465 0.2420551510358871
537.5495000000001 0.24039015103588707
537.8515 0.23205515103588714
538.155 0.2553901510358872
538.458 0.26372015103588714
538.761 0.2620551510358871
539.0635 0.24872515103588705
539.367 0.23039015103588711
539.6700000000001 0.25872015103588725
539.973 0.2553901510358872
540.2750000000001 0.2503901510358871
540.578 0.25372515103588716
540.8810000000001 0.2520551510358871
541.184 0.2753901510358872
541.4865 0.2887251510358871
541.7895 0.2620551510358871
542.0925 0.24039015103588707
542.2429999999999 0.2553901510358872
542.5450000000001 0.2703901510358871
542.847 0.275390151035887
543.1500000000001 0.2803901510358871
543.452 0.2553901510358872
543.7550000000001 0.25872515103588706
544.058 0.24039015103588707
544.3599999999999 0.265390151035887
544.663 0.27206015103588693
544.966 0.26705515103588723
545.269 0.24539015103588718
545.5709999999999 0.2603901510358871
545.874 0.293725151035887
546.177 0.28372515103588697
546.4784999999999 0.2653901510358872
546.7815 0.28372015103588716
547.0844999999999 0.28372015103588694
547.3855 0.265390151035887
547.6885 0.29206015103588717
547.9915 0.29205515103588714
548.2925 0.2987251510358871
548.5955 0.285390151035887
548.8985 0.30205515103588715
549.2005 0.2737251510358872
549.5035 0.29372015103588694
549.806 0.32705515103588706
550.108 0.3303901510358869
550.4105 0.3087251510358871
550.7125 0.32705515103588706
551.014 0.3387201510358871
551.317 0.35705515103588686
551.619 0.3537251510358868
551.921 0.3753901510358871
552.2239999999999 0.3670551510358873
552.5260000000001 0.35372515103588703
552.8285 0.3837251510358873
553.13 0.3937201510358868
553.432 0.400390151035887
553.7345 0.420390151035887
554.0360000000001 0.440390151035887
554.3389999999999 0.4237251510358873
554.6415 0.3887251510358872
554.943 0.4153901510358871
555.2445 0.44705515103588694
555.5465 0.4437251510358869
555.8489999999999 0.4670551510358874
556.1514999999999 0.4337251510358871
556.453 0.4637251510358869
556.7555 0.4337251510358871
557.0564999999999 0.4487201510358874
557.3585 0.438725151035887
557.6614999999999 0.400390151035887
557.9625 0.45039015103588725
558.2655 0.418725151035887
558.567 0.39205515103588723
558.8685 0.418725151035887
559.1700000000001 0.36539015103588707
559.472 0.35872515103588715
559.774 0.3653901510358873
560.076 0.35872515103588715
560.379 0.3587251510358869
560.679 0.35372515103588703
560.9815000000001 0.32705515103588706
561.283 0.3237201510358872
561.585 0.3187201510358871
561.887 0.2937251510358872
562.188 0.3087251510358871
562.337 0.30205515103588715
562.64 0.31039015103588713
562.941 0.31039015103588713
563.2429999999999 0.31039015103588713
563.544 0.2703901510358871
563.846 0.3220601510358872
564.148 0.2903901510358871
564.4495 0.29372015103588717
564.752 0.2953901510358872
565.0519999999999 0.2837251510358872
565.3545 0.28205515103588713
565.656 0.28372015103588716
565.958 0.2903901510358871
566.2584999999999 0.305390151035887
566.5605 0.2703901510358871
566.8615 0.27206015103588693
567.164 0.275390151035887
567.4645 0.28205515103588713
567.7665 0.28372015103588694
568.0675 0.27705515103588724
568.3685 0.28205515103588713
568.6700000000001 0.26372015103588714
568.971 0.27372515103588696
569.2735 0.27872015103588704
569.5745 0.277055151035887
569.8755 0.25372015103588713
570.1765 0.26872515103588707
570.479 0.2803901510358871
570.78 0.26872515103588707
571.081 0.287055151035887
571.3820000000001 0.25872515103588706
571.684 0.265390151035887
571.9839999999999 0.24206015103588713
572.285 0.2520601510358869
572.587 0.257055151035887
572.8879999999999 0.275390151035887
573.1890000000001 0.24039015103588707
573.49 0.2337251510358872
573.7925 0.24872515103588705
574.0925 0.2203901510358871
574.3934999999999 0.2520551510358871
574.695 0.2737251510358872
574.995 0.24039015103588707
575.297 0.2337251510358872
575.598 0.27706015103588705
575.899 0.2237251510358872
576.2 0.2520601510358869
576.5005 0.23539015103588695
576.8015 0.2287251510358871
577.1025 0.23705515103588698
577.4045 0.267055151035887
577.7045 0.2503901510358871
578.0055 0.25872515103588706
578.307 0.25372015103588713
578.607 0.25372515103588716
578.9075 0.23372015103588717
579.2094999999999 0.2620601510358869
579.5095 0.24372015103588712
579.811 0.24539015103588718
580.1120000000001 0.2570551510358872
580.412 0.237060151035887
580.7135000000001 0.2503901510358871
581.014 0.2237251510358872
581.3140000000001 0.2620551510358871
581.616 0.238720151035887
581.9165 0.26372015103588714
582.065 0.22872015103588705
582.366 0.23872515103588704
582.6669999999999 0.24039015103588707
582.9675 0.267055151035887
583.268 0.23539015103588695
583.569 0.2287251510358871
583.8695 0.23872515103588704
584.1700000000001 0.25539015103588697
584.4704999999999 0.2553901510358872
584.7705 0.237060151035887
585.072 0.24706015103588702
585.3715 0.24539015103588696
585.6725 0.2503901510358871
585.9735000000001 0.25539015103588697
586.2735 0.24872015103588724
586.5740000000001 0.23705515103588698
586.8745 0.23705515103588698
587.1755 0.24539015103588696
587.4745 0.24539015103588718
587.7764999999999 0.23205515103588714
588.0765 0.23539015103588695
588.3765000000001 0.24539015103588696
588.677 0.25372515103588716
588.9775 0.24039015103588707
589.2775 0.23206015103588717
589.578 0.24372015103588712
589.879 0.25372515103588716
590.1790000000001 0.24872515103588705
590.4784999999999 0.237060151035887
590.779 0.24872015103588724
591.0795 0.25372015103588713
591.38 0.23205515103588714
591.679 0.24372515103588716
591.98 0.22705515103588703
592.28 0.25372015103588713
592.5799999999999 0.2503901510358871
592.881 0.2237251510358872
593.1800000000001 0.24372515103588716
593.4815 0.23039015103588711
593.781 0.257055151035887
594.081 0.23539015103588695
594.3805 0.22872015103588705
594.6814999999999 0.22539015103588722
594.981 0.24039015103588707
595.2815 0.22372515103588697
595.5805 0.23872515103588704
595.8820000000001 0.21705515103588724
596.181 0.2520551510358871
596.4815000000001 0.2420551510358871
596.7805 0.23372015103588717
597.0805 0.23705515103588698
597.3815 0.24706015103588702
597.6814999999999 0.24539015103588718
597.9805 0.27372015103588715
598.2805000000001 0.2553901510358872
598.5795 0.2603901510358871
598.8810000000001 0.23039015103588711
599.1804999999999 0.24039015103588707
599.4805 0.21872515103588708
599.7795 0.24872515103588705
600.0795 0.2103901510358871
600.3795 0.2570551510358872
600.6795 0.2420551510358871
600.979 0.2420551510358871
601.279 0.2520551510358871
601.4275 0.22205515103588713
601.7265 0.23872515103588704
602.0274999999999 0.23539015103588717
602.3265 0.23039015103588711
602.6265000000001 0.2553901510358872
602.9255 0.2653901510358872
603.2245 0.24539015103588718
603.5245 0.24539015103588718
603.8245 0.2620551510358871
604.1245 0.23372015103588717
604.4235 0.23705515103588698
604.7235000000001 0.2553901510358872
605.0225 0.2620551510358871
605.3225 0.26372015103588714
605.6215 0.2803901510358871
605.9205 0.26206015103588715
606.2215 0.26872015103588726
606.5205000000001 0.2420551510358871
606.8205 0.27705515103588724
607.1189999999999 0.3020601510358872
607.419 0.2803901510358871
607.7180000000001 0.2520601510358869
608.0165 0.26372015103588714
608.3164999999999 0.29206015103588695
608.6155 0.27706015103588705
608.9159999999999 0.2837251510358872
609.215 0.27206015103588715
609.514 0.28706015103588706
609.814 0.3087251510358871
610.1125 0.3120601510358872
610.412 0.3287251510358871
610.711 0.32372015103588697
611.01 0.32705515103588706
611.31 0.3170601510358871
611.608 0.31205515103588694
611.9079999999999 0.33539015103588704
612.207 0.293725151035887
612.5065 0.3420601510358872
612.806 0.32705515103588706
613.105 0.3587251510358869
613.4035 0.35372515103588703
613.703 0.3470551510358871
614.002 0.35039015103588717
614.3005 0.35872515103588737
614.6005 0.3470601510358869
614.899 0.34705515103588686
615.1985 0.3287251510358869
615.497 0.33872515103588713
615.7955 0.33539015103588726
616.0955 0.34539015103588705
616.394 0.3187201510358871
616.6925 0.30705515103588704
616.992 0.31039015103588713
617.2905000000001 0.32539015103588703
617.5895 0.32039015103588714
617.8885 0.303725151035887
618.1875 0.28372515103588697
618.4855 0.3287251510358871
618.7855 0.3003901510358871
619.0835 0.2787251510358871
619.3824999999999 0.2903901510358871
619.6815 0.2903901510358871
619.9804999999999 0.2503901510358871
620.2785 0.2720551510358871
620.577 0.2470551510358872
620.7255 0.26705515103588723
621.0245 0.293725151035887
621.3235 0.26706015103588704
621.6215 0.2603901510358871
621.9205 0.25372015103588713
622.2195 0.25539015103588697
622.5174999999999 0.2703901510358871
622.8175 0.24372515103588693
623.1155 0.26872515103588707
623.4135 0.265390151035887
623.7125 0.25206015103588714
624.0115 0.24539015103588718
624.3095000000001 0.24872015103588724
624.6085 0.24539015103588696
624.9065 0.26372515103588695
625.2055 0.2287251510358871
625.504 0.24539015103588718
625.8025 0.24039015103588707
626.1015 0.24039015103588707
626.399 0.24372515103588693
626.697 0.2603901510358871
626.9955 0.2520551510358871
627.2945 0.2553901510358872
627.5930000000001 0.2420551510358871
627.8910000000001 0.23372015103588717
628.1890000000001 0.22539015103588722
628.488 0.23872515103588704
628.7864999999999 0.2703901510358871
629.085 0.22205515103588713
629.383 0.23039015103588711
629.681 0.20872515103588707
629.979 0.238720151035887
630.277 0.257055151035887
630.575 0.257055151035887
630.8735 0.24372515103588716
631.173 0.2653901510358872
631.471 0.25706015103588703
631.769 0.2553901510358872
632.067 0.24706015103588702
632.365 0.2420551510358871
632.663 0.26372015103588714
632.961 0.23372015103588717
633.259 0.2520551510358871
633.557 0.2520551510358871
633.855 0.23372015103588717
634.154 0.28205515103588713
634.452 0.25539015103588697
634.749 0.24039015103588707
635.047 0.23872515103588704
635.345 0.24539015103588718
635.644 0.24706015103588702
635.942 0.25372515103588694
636.24 0.2420551510358871
636.5375 0.24372515103588716
636.8344999999999 0.24539015103588718
637.1324999999999 0.2503901510358871
637.4315 0.24039015103588707
637.7294999999999 0.23705515103588698
638.0275 0.2553901510358872
638.3240000000001 0.25872015103588725
638.6215 0.24039015103588707
638.9195 0.25706015103588703
639.2185 0.25539015103588697
639.5165 0.2520551510358871
639.6645000000001 0.2520551510358871
639.9615 0.2603901510358871
640.2584999999999 0.2520551510358871
640.5565 0.24706015103588702
640.8544999999999 0.26206015103588715
641.1525 0.24039015103588707
641.4490000000001 0.22205515103588713
641.7475 0.25206015103588714
642.0455 0.24372015103588712
642.3435 0.2520551510358871
642.6400000000001 0.25539015103588697
642.9375 0.23039015103588711
643.2355 0.23205515103588714
643.533 0.237060151035887
643.8305 0.23039015103588711
644.1285 0.2553901510358872
644.4259999999999 0.2503901510358871
644.724 0.27706015103588705
645.0215000000001 0.2420551510358871
645.318 0.2753901510358872
645.6155 0.2553901510358872
645.913 0.24539015103588696
646.211 0.27705515103588724
646.5074999999999 0.23039015103588711
646.8050000000001 0.26372515103588695
647.104 0.23205515103588714
647.4010000000001 0.2653901510358872
647.698 0.24539015103588718
647.995 0.24039015103588707
648.293 0.27372515103588696
648.5889999999999 0.24706015103588702
648.887 0.2787251510358871
649.184 0.2737251510358872
649.482 0.24872515103588705
649.778 0.2603901510358871
649.784 0.26411030207177444
650.084 0.2874403020717745
650.383 0.25078030207177415
650.683 0.25078030207177415
650.982 0.2674403020717745
651.282 0.2741103020717742
651.581 0.3041103020717745
651.881 0.31411030207177426
652.182 0.2607803020717744
652.481 0.25744030207177426
652.781 0.3241103020717745
653.08 0.2907803020717742
653.38 0.2874403020717745
653.679 0.28411030207177446
653.978 0.2807803020717744
654.278 0.3174403020717743
654.577 0.3107803020717742
654.876 0.3241103020717745
655.176 0.3174403020717743
655.475 0.3441103020717745
655.774 0.3107803020717742
656.073 0.3441103020717745
656.373 0.3541103020717743
656.672 0.36744030207177414
656.971 0.3807803020717745
657.271 0.35744030207177435
657.57 0.3707803020717747
657.869 0.4041103020717741
658.168 0.3974403020717744
658.467 0.4041103020717741
658.767 0.4241103020717746
659.066 0.4141103020717739
659.365 0.45411030207177394
659.664 0.4641103020717746
659.963 0.46744030207177467
660.263 0.48744030207177425
660.562 0.5041103020717747
660.861 0.45411030207177394
661.158 0.5407803020717746
661.457 0.5074403020717747
661.756 0.5041103020717747
662.055 0.5374403020717741
662.354 0.49744030207177403
662.653 0.5074403020717747
662.952 0.530780302071774
663.251 0.48744030207177425
663.551 0.5074403020717747
663.85 0.5441103020717747
664.149 0.457440302071774
664.448 0.46744030207177467
664.747 0.46078030207177456
665.046 0.494110302071774
665.345 0.4374403020717744
665.644 0.4741103020717744
665.943 0.46078030207177456
666.24 0.41078030207177474
666.538 0.3774403020717739
666.837 0.41078030207177474
667.136 0.4207803020717745
667.435 0.4074403020717742
667.734 0.3974403020717744
668.033 0.38411030207177455
668.332 0.35744030207177435
668.631 0.38411030207177455
668.93 0.3707803020717747
669.228 0.3274403020717741
669.525 0.4041103020717741
669.824 0.3441103020717745
670.123 0.35078030207177424
670.422 0.2974403020717743
670.721 0.3107803020717742
671.019 0.3341103020717743
671.318 0.33744030207177433
671.617 0.34078030207177445
671.914 0.3007803020717744
672.212 0.3541103020717743
672.511 0.3241103020717745
672.81 0.32078030207177444
673.109 0.3041103020717745
673.407 0.3074403020717741
673.706 0.2907803020717742
674.003 0.27078030207177417
674.302 0.27078030207177417
674.6 0.2874403020717745
674.899 0.29411030207177424
675.198 0.3174403020717743
675.496 0.27078030207177417
675.793 0.27078030207177417
676.091 0.29411030207177424
676.39 0.23744030207177425
676.689 0.27078030207177417
676.987 0.26411030207177444
677.286 0.2674403020717745
677.582 0.2674403020717745
677.881 0.3007803020717744
678.18 0.2241103020717744
678.478 0.26411030207177444
678.777 0.2541103020717742
679.075 0.2907803020717742
679.372 0.2874403020717745
679.67 0.29411030207177424
679.969 0.24744030207177448
680.267 0.20744030207177444
680.566 0.24411030207177442
680.862 0.24744030207177448
681.161 0.25078030207177415
681.459 0.2741103020717742
681.758 0.24744030207177448
682.054 0.23078030207177413
682.352 0.24744030207177448
682.651 0.25744030207177426
682.949 0.25744030207177426
683.248 0.2741103020717742
683.544 0.2607803020717744
683.842 0.2541103020717742
684.141 0.2674403020717745
684.439 0.21078030207177412
684.735 0.24411030207177442
685.034 0.2341103020717742
685.332 0.22078030207177435
685.63 0.26411030207177444
685.927 0.2541103020717742
686.225 0.25078030207177415
686.523 0.27078030207177417
686.822 0.24078030207177437
687.118 0.25744030207177426
687.416 0.2541103020717742
687.714 0.24744030207177448
688.013 0.22078030207177435
688.309 0.2607803020717744
688.607 0.2241103020717744
688.905 0.2341103020717742
689.201 0.26411030207177444
689.5 0.24411030207177442
689.798 0.2341103020717742
690.096 0.23744030207177425
690.392 0.2541103020717742
690.69 0.2541103020717742
690.988 0.28411030207177446
691.284 0.24078030207177437
691.583 0.2674403020717745
691.881 0.25078030207177415
692.177 0.24744030207177448
692.475 0.20078030207177433
692.773 0.25744030207177426
693.071 0.25078030207177415
693.367 0.22078030207177435
693.665 0.2674403020717745
693.963 0.23744030207177425
694.259 0.2607803020717744
694.557 0.23744030207177425
694.855 0.25078030207177415
695.151 0.23744030207177425
695.449 0.2607803020717744
695.747 0.25078030207177415
696.043 0.2341103020717742
696.341 0.25078030207177415
696.639 0.21744030207177423
696.935 0.2674403020717745
697.233 0.21744030207177423
697.531 0.2741103020717742
697.827 0.2607803020717744
698.125 0.28411030207177446
698.421 0.24411030207177442
698.719 0.2741103020717742
699.016 0.25078030207177415
699.312 0.24411030207177442
699.61 0.2241103020717744
699.908 0.2974403020717743
700.204 0.2341103020717742
700.502 0.2807803020717744
700.797 0.2607803020717744
701.095 0.24078030207177437
701.393 0.22078030207177435
701.689 0.24078030207177437
701.987 0.21078030207177412
702.284 0.23078030207177413
702.58 0.23744030207177425
702.878 0.23078030207177413
703.174 0.20411030207177439
703.471 0.24411030207177442
703.769 0.19411030207177415
704.065 0.23078030207177413
704.362 0.22744030207177446
704.658 0.2774403020717743
704.956 0.2541103020717742
705.252 0.2438055773053841
705.549 0.2422748632719226
705.847 0.24241577567753547
706.143 0.24276609212957345
706.44 0.24219651575710677
706.736 0.24312112889608317
707.033 0.2424824772188866
707.329 0.1907803020717741
707.627 0.25744030207177426
707.924 0.24744030207177448
708.22 0.21078030207177412
708.517 0.22078030207177435
708.813 0.24411030207177442
709.11 0.20744030207177444
709.406 0.25078030207177415
709.703 0.1974403020717742
709.999 0.21744030207177423
710.296 0.25744030207177426
710.592 0.23744030207177425
710.889 0.2907803020717742
711.185 0.2607803020717744
711.482 0.24411030207177442
711.78 0.23078030207177413
712.075 0.23744030207177425
712.373 0.18744030207177442
712.668 0.2807803020717744
712.966 0.24078030207177437
713.261 0.22744030207177446
713.558 0.26411030207177444
713.854 0.2341103020717742
714.151 0.2241103020717744
714.446 0.24744030207177448
714.744 0.26411030207177444
715.039 0.21411030207177417
715.337 0.24744030207177448
715.632 0.2607803020717744
715.929 0.2341103020717742
716.224 0.22078030207177435
716.522 0.24744030207177448
716.817 0.21744030207177423
717.112 0.25744030207177426
717.41 0.23744030207177425
717.705 0.22078030207177435
718.002 0.24744030207177448
718.297 0.21411030207177417
718.595 0.24744030207177448
718.89 0.25744030207177426
719.187 0.27078030207177417
719.482 0.2607803020717744
719.779 0.25744030207177426
720.075 0.2607803020717744
720.372 0.2541103020717742
720.667 0.2241103020717744
720.962 0.24411030207177442
721.259 0.22078030207177435
721.554 0.24744030207177448
721.852 0.25078030207177415
722.147 0.20411030207177439
722.444 0.2874403020717745
722.739 0.22744030207177446
723.034 0.2541103020717742
723.331 0.22744030207177446
723.626 0.24411030207177442
723.923 0.25078030207177415
724.218 0.27078030207177417
724.515 0.24411030207177442
724.81 0.23078030207177413
725.105 0.24411030207177442
725.402 0.25744030207177426
725.697 0.25078030207177415
725.994 0.20411030207177439
726.289 0.23078030207177413
726.584 0.2741103020717742
726.881 0.23744030207177425
727.176 0.2741103020717742
727.471 0.2341103020717742
727.768 0.24411030207177442
728.063 0.25078030207177415
728.36 0.24411030207177442
728.655 0.24744030207177448
728.95 0.24744030207177448
729.247 0.2341103020717742
729.541 0.21744030207177423
729.836 0.2241103020717744
730.133 0.2674403020717745
730.428 0.25744030207177426
730.725 0.21411030207177417
731.02 0.23744030207177425
731.315 0.2607803020717744
731.611 0.2607803020717744
731.906 0.24078030207177437
732.201 0.22078030207177435
732.498 0.24411030207177442
732.792 0.2341103020717742
733.087 0.2607803020717744
733.384 0.24078030207177437
733.679 0.2241103020717744
733.973 0.23078030207177413
734.27 0.22744030207177446
734.565 0.2541103020717742
734.86 0.27078030207177417
735.156 0.2674403020717745
735.451 0.26411030207177444
735.746 0.24744030207177448
736.04 0.24744030207177448
736.337 0.25744030207177426
736.632 0.25744030207177426
736.926 0.24744030207177448
737.223 0.2541103020717742
737.517 0.25744030207177426
737.812 0.27078030207177417
738.109 0.2541103020717742
738.403 0.24411030207177442
738.698 0.26411030207177444
738.992 0.21744030207177423
739.289 0.21411030207177417
739.583 0.24078030207177437
739.878 0.24078030207177437
740.175 0.2341103020717742
740.469 0.25078030207177415
740.764 0.23744030207177425
741.058 0.2607803020717744
741.355 0.2607803020717744
741.649 0.24744030207177448
741.944 0.2241103020717744
742.238 0.23078030207177413
742.534 0.25078030207177415
742.829 0.23744030207177425
743.123 0.25744030207177426
743.418 0.24411030207177442
743.714 0.23744030207177425
744.009 0.2341103020717742
744.303 0.24744030207177448
744.597 0.25078030207177415
744.894 0.25744030207177426
745.188 0.22078030207177435
745.482 0.25078030207177415
745.777 0.24744030207177448
746.071 0.22078030207177435
746.367 0.20078030207177433
746.662 0.24078030207177437
746.956 0.25744030207177426
747.25 0.24744030207177448
747.545 0.23078030207177413
747.841 0.25744030207177426
748.135 0.25744030207177426
748.429 0.23744030207177425
748.724 0.24744030207177448
749.018 0.24078030207177437
749.314 0.24078030207177437
749.608 0.2774403020717743
749.903 0.25744030207177426
750.197 0.22744030207177446
750.491 0.24744030207177448
750.787 0.25078030207177415
751.081 0.23078030207177413
751.376 0.24078030207177437
751.67 0.24078030207177437
751.964 0.2741103020717742
752.258 0.27078030207177417
752.554 0.2341103020717742
752.848 0.25078030207177415
753.142 0.24411030207177442
753.436 0.2541103020717742
753.731 0.25078030207177415
754.025 0.24078030207177437
754.319 0.2874403020717745
754.615 0.21078030207177412
754.909 0.24078030207177437
755.203 0.2341103020717742
755.497 0.22744030207177446
755.791 0.25078030207177415
756.085 0.23078030207177413
756.379 0.23744030207177425
756.675 0.2607803020717744
756.969 0.2741103020717742
757.263 0.25078030207177415
757.557 0.25078030207177415
757.851 0.24078030207177437
758.145 0.25078030207177415
758.439 0.2341103020717742
758.733 0.2607803020717744
759.026 0.24744030207177448
759.322 0.22744030207177446
759.616 0.24744030207177448
759.91 0.25078030207177415
760.204 0.2674403020717745
760.498 0.20411030207177439
760.792 0.27078030207177417
761.086 0.2607803020717744
761.379 0.26411030207177444
761.673 0.2241103020717744
761.967 0.2341103020717742
762.261 0.2341103020717742
762.555 0.24744030207177448
762.85 0.2741103020717742
763.144 0.2341103020717742
763.438 0.2907803020717742
763.732 0.22078030207177435
764.026 0.25078030207177415
764.319 0.25744030207177426
764.613 0.2541103020717742
764.907 0.2607803020717744
765.2 0.2774403020717743
765.494 0.24078030207177437
765.788 0.2341103020717742
766.082 0.21744030207177423
766.375 0.25744030207177426
766.669 0.26411030207177444
766.963 0.23078030207177413
767.256 0.25078030207177415
767.55 0.26411030207177444
767.843 0.2607803020717744
768.137 0.2674403020717745
768.431 0.26411030207177444
768.724 0.24744030207177448
769.018 0.2607803020717744
769.311 0.25744030207177426
769.605 0.24744030207177448
769.899 0.24078030207177437
770.192 0.25078030207177415
770.486 0.2241103020717744
770.779 0.2907803020717742
771.073 0.25744030207177426
771.366 0.27078030207177417
771.66 0.21411030207177417
771.953 0.21744030207177423
772.247 0.21078030207177412
772.54 0.2241103020717744
772.834 0.27078030207177417
773.127 0.28411030207177446
773.421 0.2341103020717742
773.714 0.23744030207177425
774.007 0.21411030207177417
774.301 0.2541103020717742
774.594 0.23078030207177413
774.888 0.2807803020717744
775.181 0.2807803020717744
775.474 0.2341103020717742
775.768 0.29411030207177424
776.061 0.2541103020717742
776.355 0.2674403020717745
776.648 0.25744030207177426
776.941 0.2607803020717744
777.235 0.2741103020717742
777.528 0.2341103020717742
777.821 0.2774403020717743
778.112 0.2541103020717742
778.406 0.2541103020717742
778.699 0.2674403020717745
778.992 0.25078030207177415
779.286 0.24411030207177442
779.579 0.23078030207177413
779.872 0.22078030207177435
780.165 0.2607803020717744
780.458 0.25078030207177415
780.752 0.25078030207177415
781.045 0.25078030207177415
781.338 0.2607803020717744
781.629 0.23078030207177413
781.922 0.21411030207177417
782.216 0.23744030207177425
782.509 0.24078030207177437
782.802 0.24411030207177442
783.095 0.25744030207177426
783.388 0.21078030207177412
783.681 0.24078030207177437
783.974 0.20078030207177433
784.266 0.2607803020717744
784.559 0.24411030207177442
784.852 0.26411030207177444
785.145 0.25744030207177426
785.438 0.26411030207177444
785.731 0.21411030207177417
786.024 0.24078030207177437
786.315 0.24411030207177442
786.608 0.24078030207177437
786.901 0.25078030207177415
787.194 0.25744030207177426
787.487 0.27078030207177417
787.78 0.23744030207177425
788.073 0.24411030207177442
788.364 0.25744030207177426
788.657 0.26411030207177444
788.95 0.27078030207177417
789.243 0.23744030207177425
789.536 0.2241103020717744
789.829 0.2674403020717745
790.119 0.24411030207177442
790.412 0.24744030207177448
790.705 0.2807803020717744
790.998 0.23078030207177413
791.291 0.2541103020717742
791.582 0.25744030207177426
791.875 0.2541103020717742
792.168 0.25744030207177426
792.46 0.25078030207177415
792.753 0.28411030207177446
793.044 0.24078030207177437
793.337 0.2541103020717742
793.63 0.27078030207177417
793.922 0.2607803020717744
794.215 0.25744030207177426
794.506 0.24744030207177448
794.799 0.24078030207177437
795.091 0.24411030207177442
795.384 0.24744030207177448
795.675 0.24411030207177442
795.968 0.2741103020717742
796.26 0.2541103020717742
796.553 0.25744030207177426
796.846 0.26411030207177444
797.136 0.26411030207177444
797.429 0.2741103020717742
797.722 0.2807803020717744
798.014 0.24744030207177448
798.305 0.2241103020717744
798.598 0.2541103020717742
798.89 0.2874403020717745
799.183 0.2541103020717742
799.474 0.27078030207177417
799.766 0.24411030207177442
800.059 0.28411030207177446
800.349 0.2341103020717742
800.642 0.26411030207177444
800.934 0.3007803020717744
801.227 0.2774403020717743
801.518 0.3007803020717744
801.81 0.24744030207177448
802.103 0.2741103020717742
802.393 0.23078030207177413
802.686 0.2674403020717745
802.978 0.25744030207177426
803.271 0.23078030207177413
803.561 0.27078030207177417
803.853 0.2874403020717745
804.146 0.24078030207177437
804.436 0.26411030207177444
804.729 0.2341103020717742
805.021 0.2607803020717744
805.312 0.28411030207177446
805.604 0.25744030207177426
805.896 0.24411030207177442
806.187 0.2774403020717743
806.479 0.27078030207177417
806.772 0.2774403020717743
807.062 0.23744030207177425
807.354 0.2741103020717742
807.647 0.2741103020717742
807.937 0.24744030207177448
808.229 0.25744030207177426
808.522 0.2607803020717744
808.812 0.2741103020717742
809.104 0.2774403020717743
809.396 0.26411030207177444
809.687 0.2241103020717744
809.979 0.24744030207177448
810.271 0.2241103020717744
810.562 0.2241103020717744
810.854 0.23744030207177425
811.146 0.23744030207177425
811.436 0.2607803020717744
811.728 0.25078030207177415
812.019 0.26411030207177444
812.311 0.24744030207177448
812.603 0.24411030207177442
812.893 0.2607803020717744
813.185 0.2674403020717745
813.476 0.25078030207177415
813.768 0.22078030207177435
814.06 0.28411030207177446
814.35 0.25078030207177415
814.642 0.28411030207177446
814.932 0.2541103020717742
815.224 0.2607803020717744
815.516 0.23744030207177425
815.806 0.25078030207177415
816.099 0.28411030207177446
816.389 0.24078030207177437
816.681 0.2807803020717744
816.973 0.25744030207177426
817.263 0.28411030207177446
817.555 0.25078030207177415
817.845 0.2741103020717742
818.137 0.2807803020717744
818.427 0.2541103020717742
818.719 0.22744030207177446
819.011 0.2674403020717745
819.301 0.25078030207177415
819.593 0.25078030207177415
819.883 0.2807803020717744
820.174 0.2741103020717742
820.464 0.27078030207177417
820.756 0.2674403020717745
821.046 0.2674403020717745
821.338 0.2774403020717743
821.628 0.24078030207177437
821.92 0.2874403020717745
822.212 0.29411030207177424
822.502 0.2807803020717744
822.794 0.3007803020717744
823.083 0.2341103020717742
823.375 0.2807803020717744
823.665 0.2907803020717742
823.957 0.3041103020717745
824.247 0.2974403020717743
824.538 0.2674403020717745
824.828 0.27078030207177417
825.12 0.3107803020717742
825.41 0.25744030207177426
825.702 0.2741103020717742
825.991 0.2774403020717743
826.283 0.25078030207177415
826.573 0.24411030207177442
826.865 0.2907803020717742
827.154 0.2974403020717743
827.446 0.2741103020717742
827.736 0.26411030207177444
828.027 0.2541103020717742
828.317 0.2874403020717745
828.607 0.2807803020717744
828.898 0.26411030207177444
829.188 0.27078030207177417
829.48 0.27078030207177417
829.769 0.2974403020717743
830.061 0.24078030207177437
830.351 0.2674403020717745
830.642 0.2774403020717743
830.932 0.2607803020717744
831.223 0.2807803020717744
831.513 0.2541103020717742
831.802 0.3007803020717744
832.094 0.2774403020717743
832.384 0.2807803020717744
832.675 0.26411030207177444
832.965 0.26411030207177444
833.256 0.25744030207177426
833.546 0.2741103020717742
833.835 0.26411030207177444
834.127 0.2674403020717745
834.416 0.26411030207177444
834.708 0.29411030207177424
834.997 0.2974403020717743
835.289 0.25744030207177426
835.578 0.2807803020717744
835.867 0.2674403020717745
836.159 0.31411030207177426
836.448 0.2774403020717743
836.74 0.2874403020717745
837.029 0.2774403020717743
837.318 0.24744030207177448
837.61 0.2674403020717745
837.899 0.24078030207177437
838.189 0.29411030207177424
838.48 0.29411030207177424
838.769 0.24411030207177442
839.061 0.28411030207177446
839.35 0.23078030207177413
839.639 0.29411030207177424
839.93 0.29411030207177424
840.22 0.2541103020717742
840.509 0.2974403020717743
840.8 0.2607803020717744
841.09 0.3107803020717742
841.379 0.29411030207177424
841.67 0.28411030207177446
841.959 0.25744030207177426
842.249 0.24744030207177448
842.54 0.25744030207177426
842.829 0.25744030207177426
843.12 0.2874403020717745
843.409 0.27078030207177417
843.699 0.2607803020717744
843.99 0.3107803020717742
844.279 0.2674403020717745
844.568 0.3174403020717743
844.857 0.25078030207177415
845.148 0.2741103020717742
845.438 0.2907803020717742
845.727 0.24744030207177448
846.018 0.2874403020717745
846.307 0.27078030207177417
846.596 0.25744030207177426
846.887 0.2607803020717744
847.176 0.3107803020717742
847.465 0.2874403020717745
847.756 0.2674403020717745
848.045 0.28411030207177446
848.334 0.25078030207177415
848.623 0.2874403020717745
848.914 0.26411030207177444
849.203 0.29411030207177424
849.492 0.27078030207177417
849.781 0.28411030207177446
850.072 0.2541103020717742
850.361 0.2974403020717743
850.65 0.27078030207177417
850.941 0.24411030207177442
851.23 0.2341103020717742
851.519 0.27078030207177417
851.808 0.3074403020717741
852.099 0.25744030207177426
852.388 0.29411030207177424
852.677 0.2607803020717744
852.966 0.2974403020717743
853.257 0.2741103020717742
853.545 0.2974403020717743
853.834 0.2607803020717744
854.123 0.2807803020717744
854.412 0.2774403020717743
854.703 0.2741103020717742
854.992 0.27078030207177417
855.28 0.2541103020717742
855.569 0.25078030207177415
855.86 0.24744030207177448
856.149 0.3074403020717741
856.438 0.2607803020717744
856.726 0.3041103020717745
857.015 0.2974403020717743
857.306 0.2541103020717742
857.595 0.3041103020717745
857.883 0.28411030207177446
858.172 0.2674403020717745
858.461 0.2974403020717743
858.752 0.31411030207177426
859.04 0.28411030207177446
859.329 0.3007803020717744
859.618 0.3074403020717741
859.906 0.2741103020717742
860.197 0.2674403020717745
860.486 0.27078030207177417
860.774 0.2741103020717742
861.063 0.3074403020717741
861.352 0.31411030207177426
861.64 0.3007803020717744
861.931 0.2774403020717743
862.219 0.2907803020717742
862.508 0.2974403020717743
862.796 0.3274403020717741
863.085 0.3174403020717743
863.374 0.25744030207177426
863.662 0.3241103020717745
863.953 0.3074403020717741
864.241 0.3074403020717741
864.53 0.31411030207177426
864.818 0.3074403020717741
865.107 0.29411030207177424
865.395 0.28411030207177446
865.684 0.2907803020717742
865.972 0.2741103020717742
866.263 0.3541103020717743
866.551 0.3007803020717744
866.84 0.26411030207177444
867.128 0.33744030207177433
867.416 0.2807803020717744
867.705 0.2974403020717743
867.993 0.2974403020717743
868.282 0.2807803020717744
868.57 0.3007803020717744
868.86 0.29411030207177424
869.149 0.3074403020717741
869.437 0.2774403020717743
869.726 0.2774403020717743
870.014 0.31411030207177426
870.302 0.3241103020717745
870.591 0.2907803020717742
870.879 0.3007803020717744
871.167 0.2907803020717742
871.455 0.3274403020717741
871.744 0.3074403020717741
872.032 0.29411030207177424
872.32 0.31411030207177426
872.611 0.2874403020717745
872.899 0.28411030207177446
873.187 0.3307803020717742
873.475 0.3007803020717744
873.763 0.32078030207177444
874.052 0.3074403020717741
874.34 0.29411030207177424
874.628 0.3007803020717744
874.916 0.2541103020717742
875.205 0.2907803020717742
875.493 0.2907803020717742
875.781 0.3241103020717745
876.069 0.32078030207177444
876.357 0.2807803020717744
876.645 0.3307803020717742
876.933 0.33744030207177433
877.221 0.3341103020717743
877.51 0.3041103020717745
877.798 0.3307803020717742
878.086 0.3174403020717743
878.374 0.25078030207177415
878.662 0.3074403020717741
878.95 0.29411030207177424
879.238 0.3341103020717743
879.526 0.29411030207177424
879.814 0.3441103020717745
880.102 0.2974403020717743
880.39 0.28411030207177446
880.678 0.2774403020717743
880.966 0.3007803020717744
881.254 0.3341103020717743
881.542 0.3007803020717744
881.83 0.2674403020717745
882.118 0.2807803020717744
882.406 0.2907803020717742
882.694 0.34078030207177445
882.982 0.3274403020717741
883.27 0.2974403020717743
883.558 0.3007803020717744
883.846 0.36078030207177403
884.134 0.3007803020717744
884.421 0.3474403020717741
884.709 0.3107803020717742
884.995 0.32078030207177444
885.283 0.3474403020717741
885.571 0.32078030207177444
885.859 0.3241103020717745
886.147 0.3307803020717742
886.434 0.3307803020717742
886.722 0.3074403020717741
887.01 0.3174403020717743
887.298 0.3241103020717745
887.586 0.3174403020717743
887.873 0.3107803020717742
888.161 0.31411030207177426
888.449 0.3274403020717741
888.735 0.3307803020717742
889.022 0.32078030207177444
889.31 0.33744030207177433
889.598 0.3241103020717745
889.886 0.32078030207177444
890.173 0.32078030207177444
890.461 0.3441103020717745
890.749 0.36078030207177403
891.036 0.31411030207177426
891.324 0.3174403020717743
891.61 0.31411030207177426
891.897 0.3174403020717743
892.185 0.3474403020717741
892.473 0.3341103020717743
892.76 0.29411030207177424
893.048 0.3541103020717743
893.335 0.3007803020717744
893.621 0.37411030207177387
893.909 0.35744030207177435
894.196 0.35078030207177424
894.484 0.3641103020717741
894.771 0.32078030207177444
895.059 0.3174403020717743
895.346 0.3707803020717747
895.632 0.3707803020717747
895.919 0.3174403020717743
896.207 0.3274403020717741
896.495 0.3274403020717741
896.782 0.3641103020717741
897.069 0.36744030207177414
897.355 0.34078030207177445
897.642 0.3341103020717743
897.93 0.3274403020717741
898.217 0.3541103020717743
898.505 0.38411030207177455
898.79 0.36078030207177403
899.078 0.35078030207177424
899.365 0.3974403020717744
899.652 0.35744030207177435
899.94 0.3441103020717745
900.227 0.34078030207177445
900.513 0.3907803020717743
900.8 0.35078030207177424
901.087 0.34078030207177445
901.375 0.3541103020717743
901.66 0.34078030207177445
901.947 0.3441103020717745
902.235 0.34078030207177445
902.522 0.3307803020717742
902.809 0.3707803020717747
903.095 0.35078030207177424
903.382 0.3307803020717742
903.669 0.35744030207177435
903.956 0.36078030207177403
904.242 0.3441103020717745
904.529 0.3174403020717743
904.816 0.35744030207177435
905.103 0.34078030207177445
905.389 0.3307803020717742
905.676 0.3441103020717745
905.963 0.35744030207177435
906.25 0.3707803020717747
906.536 0.3107803020717742
906.823 0.3874403020717746
907.11 0.35744030207177435
907.397 0.3441103020717745
907.682 0.34078030207177445
907.969 0.3307803020717742
908.256 0.3107803020717742
908.542 0.3641103020717741
908.829 0.2974403020717743
909.116 0.3441103020717745
909.403 0.34078030207177445
909.688 0.32078030207177444
909.975 0.34078030207177445
910.262 0.3007803020717744
910.547 0.36078030207177403
910.834 0.3641103020717741
911.121 0.3707803020717747
911.406 0.36078030207177403
911.693 0.3241103020717745
911.98 0.3774403020717739
912.267 0.34078030207177445
912.552 0.3307803020717742
912.839 0.3107803020717742
913.126 0.3341103020717743
913.411 0.36078030207177403
913.698 0.38411030207177455
913.985 0.35744030207177435
914.27 0.3441103020717745
914.557 0.3707803020717747
914.844 0.32078030207177444
915.129 0.3274403020717741
915.416 0.3474403020717741
915.703 0.3241103020717745
915.988 0.33744030207177433
916.274 0.3007803020717744
916.559 0.3274403020717741
916.846 0.33744030207177433
917.133 0.3541103020717743
917.418 0.3274403020717741
917.705 0.36078030207177403
917.992 0.2874403020717745
918.276 0.3474403020717741
918.563 0.29411030207177424
918.848 0.3074403020717741
919.135 0.36078030207177403
919.422 0.31411030207177426
919.706 0.33744030207177433
919.993 0.3474403020717741
920.28 0.3007803020717744
920.565 0.3274403020717741
920.851 0.3341103020717743
921.136 0.34078030207177445
921.423 0.3174403020717743
921.709 0.3274403020717741
921.994 0.3041103020717745
922.281 0.3107803020717742
922.566 0.38411030207177455
922.852 0.31411030207177426
923.137 0.3274403020717741
923.424 0.32078030207177444
923.71 0.3807803020717745
923.995 0.28411030207177446
924.281 0.37411030207177387
924.566 0.35744030207177435
924.853 0.3074403020717741
925.137 0.3074403020717741
925.424 0.29411030207177424
925.71 0.3307803020717742
925.995 0.3474403020717741
926.282 0.3241103020717745
926.566 0.3474403020717741
926.853 0.3074403020717741
927.137 0.3341103020717743
927.424 0.32078030207177444
927.708 0.3241103020717745
927.995 0.3041103020717745
928.279 0.32078030207177444
928.566 0.3074403020717741
928.85 0.3007803020717744
929.137 0.3341103020717743
929.421 0.3174403020717743
929.708 0.2807803020717744
929.992 0.3807803020717745
930.279 0.3174403020717743
930.565 0.34078030207177445
930.849 0.2907803020717742
931.136 0.35078030207177424
931.42 0.3174403020717743
931.707 0.2907803020717742
931.991 0.32078030207177444
932.275 0.3107803020717742
932.562 0.35078030207177424
932.846 0.32078030207177444
933.132 0.3007803020717744
933.417 0.3307803020717742
933.703 0.3174403020717743
933.987 0.34078030207177445
934.274 0.32078030207177444
934.558 0.3241103020717745
934.844 0.29411030207177424
935.129 0.3307803020717742
935.415 0.3174403020717743
935.699 0.2741103020717742
935.985 0.3041103020717745
936.27 0.2807803020717744
936.556 0.28411030207177446
936.84 0.3007803020717744
937.124 0.3274403020717741
937.411 0.3474403020717741
937.695 0.29411030207177424
937.981 0.33744030207177433
938.265 0.3041103020717745
938.551 0.35744030207177435
938.836 0.3241103020717745
939.12 0.3474403020717741
939.406 0.31411030207177426
939.69 0.31411030207177426
939.976 0.3007803020717744
940.26 0.3007803020717744
940.546 0.3074403020717741
940.831 0.3107803020717742
941.115 0.2974403020717743
941.401 0.3174403020717743
941.685 0.31411030207177426
941.971 0.2907803020717742
942.255 0.31411030207177426
942.539 0.3174403020717743
942.825 0.3074403020717741
943.109 0.36744030207177414
943.393 0.3107803020717742
943.679 0.3074403020717741
943.963 0.3441103020717745
944.249 0.3107803020717742
944.533 0.31411030207177426
944.817 0.2874403020717745
945.103 0.3341103020717743
945.387 0.3074403020717741
945.671 0.3007803020717744
945.957 0.28411030207177446
946.241 0.3107803020717742
946.525 0.31411030207177426
946.811 0.3107803020717742
947.095 0.2974403020717743
947.38 0.3107803020717742
947.664 0.2874403020717745
947.948 0.3107803020717742
948.234 0.29411030207177424
948.518 0.3107803020717742
948.802 0.3174403020717743
949.088 0.3307803020717742
949.372 0.33744030207177433
949.655 0.2907803020717742
949.939 0.2774403020717743
950.225 0.31411030207177426
950.509 0.29411030207177424
950.793 0.3007803020717744
951.078 0.3174403020717743
951.362 0.2907803020717742
951.646 0.2874403020717745
951.932 0.3041103020717745
952.215 0.2674403020717745
952.499 0.2874403020717745
952.785 0.31411030207177426
953.069 0.3007803020717744
953.352 0.31411030207177426
953.636 0.3007803020717744
953.922 0.3174403020717743
954.205 0.2974403020717743
954.489 0.3007803020717744
954.773 0.3107803020717742
955.058 0.3007803020717744
955.342 0.2974403020717743
955.626 0.32078030207177444
955.911 0.2741103020717742
956.195 0.3241103020717745
956.479 0.34078030207177445
956.762 0.3007803020717744
957.048 0.2907803020717742
957.331 0.3007803020717744
957.615 0.3107803020717742
957.899 0.3107803020717742
958.184 0.3474403020717741
958.468 0.2874403020717745
958.751 0.2907803020717742
959.035 0.3241103020717745
959.318 0.31411030207177426
959.604 0.3307803020717742
959.887 0.3241103020717745
960.171 0.3041103020717745
960.454 0.33744030207177433
960.74 0.3074403020717741
961.023 0.3074403020717741
961.307 0.31411030207177426
961.59 0.3041103020717745
961.874 0.3174403020717743
962.159 0.3174403020717743
962.443 0.3174403020717743
962.726 0.3474403020717741
963.009 0.2974403020717743
963.293 0.29411030207177424
963.578 0.3307803020717742
963.862 0.28411030207177446
964.145 0.29411030207177424
964.428 0.2907803020717742
964.712 0.33744030207177433
964.995 0.2807803020717744
965.28 0.2874403020717745
965.564 0.2974403020717743
965.847 0.3107803020717742
966.13 0.3474403020717741
966.414 0.3074403020717741
966.697 0.3174403020717743
966.982 0.2907803020717742
967.266 0.3241103020717745
967.549 0.3107803020717742
967.832 0.2874403020717745
968.115 0.2607803020717744
968.399 0.32078030207177444
968.682 0.29411030207177424
968.967 0.3007803020717744
969.25 0.3007803020717744
969.533 0.3041103020717745
969.817 0.2774403020717743
970.1 0.3041103020717745
970.383 0.29411030207177424
970.666 0.2807803020717744
970.949 0.31411030207177426
971.233 0.31411030207177426
971.518 0.3074403020717741
971.801 0.2741103020717742
972.084 0.29411030207177424
972.367 0.3274403020717741
972.65 0.3174403020717743
972.933 0.2974403020717743
973.216 0.2874403020717745
973.499 0.29411030207177424
973.783 0.28411030207177446
974.066 0.27078030207177417
974.351 0.2774403020717743
974.634 0.2907803020717742
974.917 0.24744030207177448
975.2 0.28411030207177446
975.483 0.2907803020717742
975.766 0.2907803020717742
976.049 0.25078030207177415
976.332 0.2674403020717745
976.615 0.2774403020717743
976.898 0.3041103020717745
977.181 0.27078030207177417
977.464 0.3074403020717741
977.747 0.3041103020717745
978.03 0.2741103020717742
978.313 0.2607803020717744
978.595 0.2974403020717743
978.878 0.3074403020717741
979.161 0.2774403020717743
979.444 0.3107803020717742
979.729 0.3107803020717742
980.012 0.3107803020717742
980.295 0.3174403020717743
980.578 0.2974403020717743
980.861 0.3074403020717741
981.143 0.31411030207177426
981.426 0.3341103020717743
981.709 0.28411030207177446
981.992 0.29411030207177424
982.275 0.2807803020717744
982.557 0.3174403020717743
982.84 0.2907803020717742
983.123 0.3041103020717745
983.406 0.3174403020717743
983.689 0.26411030207177444
983.971 0.2907803020717742
984.254 0.3241103020717745
984.537 0.28411030207177446
984.82 0.2774403020717743
985.102 0.2974403020717743
985.383 0.2807803020717744
985.666 0.3174403020717743
985.948 0.31411030207177426
986.231 0.3174403020717743
986.514 0.2974403020717743
986.797 0.25078030207177415
987.079 0.28411030207177446
987.362 0.28411030207177446
987.644 0.3007803020717744
987.927 0.32078030207177444
988.21 0.3074403020717741
988.492 0.2874403020717745
988.775 0.3174403020717743
989.058 0.2974403020717743
989.34 0.3007803020717744
989.623 0.3074403020717741
989.905 0.28411030207177446
990.188 0.27078030207177417
990.468 0.2807803020717744
990.751 0.31411030207177426
991.034 0.32078030207177444
991.316 0.31411030207177426
991.599 0.2774403020717743
991.881 0.3541103020717743
992.164 0.3007803020717744
992.446 0.31411030207177426
992.729 0.25078030207177415
993.011 0.29411030207177424
993.293 0.2974403020717743
993.574 0.2974403020717743
993.856 0.2674403020717745
994.139 0.2774403020717743
994.421 0.27078030207177417
994.704 0.3274403020717741
994.986 0.3041103020717745
995.269 0.2674403020717745
995.551 0.2974403020717743
995.831 0.3074403020717741
996.114 0.3241103020717745
996.396 0.3007803020717744
996.678 0.28411030207177446
996.961 0.33744030207177433
997.243 0.2741103020717742
997.525 0.3441103020717745
997.806 0.2807803020717744
998.088 0.3107803020717742
998.37 0.3241103020717745
998.653 0.3174403020717743
998.935 0.32078030207177444
999.217 0.3107803020717742
999.498 0.27078030207177417
999.78 0.3241103020717745
1000.06 0.2974403020717743
1000.34 0.2907803020717742
1000.63 0.2907803020717742
1000.91 0.32078030207177444
1001.19 0.3307803020717742
1001.47 0.31411030207177426
1001.75 0.32078030207177444
1002.04 0.3174403020717743
1002.32 0.3174403020717743
1002.6 0.29411030207177424
1002.88 0.31411030207177426
1003.16 0.3074403020717741
1003.44 0.3107803020717742
1003.73 0.31411030207177426
1004.01 0.3074403020717741
1004.29 0.3174403020717743
1004.57 0.31411030207177426
1004.85 0.29411030207177424
1005.14 0.34078030207177445
1005.42 0.3274403020717741
1005.7 0.3174403020717743
1005.98 0.3041103020717745
1006.26 0.3107803020717742
1006.54 0.3107803020717742
1006.82 0.3174403020717743
1007.11 0.3274403020717741
1007.39 0.3174403020717743
1007.67 0.3474403020717741
1007.95 0.31411030207177426
1008.23 0.3307803020717742
1008.51 0.3274403020717741
1008.79 0.3307803020717742
1009.08 0.3241103020717745
1009.36 0.35078030207177424
1009.64 0.31411030207177426
1009.92 0.3174403020717743
1010.2 0.3074403020717741
1010.48 0.29411030207177424
1010.76 0.36078030207177403
1011.05 0.31411030207177426
1011.33 0.3241103020717745
1011.61 0.3107803020717742
1011.89 0.3274403020717741
1012.17 0.32078030207177444
1012.45 0.33744030207177433
1012.73 0.3807803020717745
1013.01 0.3174403020717743
1013.3 0.3174403020717743
1013.58 0.3307803020717742
1013.86 0.3007803020717744
1014.14 0.3341103020717743
1014.42 0.3041103020717745
1014.6600000000001 0.23154457165980213
1014.9449999999999 0.264879571659802
1015.23 0.2815445716598022
1015.51 0.28487957165980227
1015.7950000000001 0.28487957165980227
1016.0799999999999 0.28987957165980216
1016.365 0.2682095716598021
1016.645 0.28821457165980213
1016.9300000000001 0.3065495716598021
1017.21 0.31821457165980216
1017.495 0.3048795716598023
1017.78 0.3048795716598023
1018.06 0.3248795716598021
1018.35 0.31487957165980207
1018.63 0.3332145716598023
1018.915 0.351544571659802
1019.2 0.3348795716598021
1019.48 0.3165445716598021
1019.765 0.329879571659802
1020.045 0.32321457165980205
1020.33 0.3165445716598021
1020.61 0.3148795716598023
1020.895 0.3098795716598022
1021.1800000000001 0.3398795716598022
1021.465 0.3448795716598019
1021.75 0.3198795716598022
1022.03 0.31321457165980204
1022.315 0.3098795716598022
1022.595 0.3365445716598019
1022.88 0.3048795716598023
1023.165 0.3465495716598024
1023.4449999999999 0.31154957165980224
1023.73 0.349879571659802
1024.01 0.3432145716598023
1024.295 0.30321457165980203
1024.5749999999998 0.32154957165980225
1024.8600000000001 0.31487957165980207
1025.145 0.31654957165980213
1025.43 0.3065445716598021
1025.7150000000001 0.3065445716598023
1025.995 0.3448795716598021
1026.28 0.3248795716598021
1026.56 0.32821457165980195
1026.845 0.3482145716598022
1027.125 0.3448795716598021
1027.4099999999999 0.33654957165980237
1027.55 0.3465495716598024
1027.835 0.321549571659802
1028.115 0.3448795716598023
1028.4 0.3248795716598021
1028.6799999999998 0.31487957165980207
1028.9650000000001 0.31321457165980227
1029.245 0.3398795716598022
1029.53 0.31821457165980216
1029.81 0.3382145716598024
1030.095 0.3315445716598022
1030.375 0.35154457165980224
1030.6599999999999 0.3015445716598022
1030.9450000000002 0.329879571659802
1031.225 0.3315445716598022
1031.51 0.3382095716598019
1031.795 0.33321457165980206
1032.0749999999998 0.29821457165980214
1032.3600000000001 0.33820957165980214
1032.645 0.33154957165980203
1032.9250000000002 0.30487957165980206
1033.21 0.35654457165980236
1033.49 0.3265445716598021
1033.775 0.3315445716598022
1034.0549999999998 0.31487957165980207
1034.34 0.3365445716598021
1034.62 0.29987957165980217
1034.9050000000002 0.31654957165980213
1035.185 0.33321457165980206
1035.47 0.3315445716598022
1035.75 0.34321457165980207
1036.0349999999999 0.3565445716598019
1036.315 0.33820957165980214
1036.6 0.3365495716598019
1036.88 0.29821457165980214
1037.165 0.3348795716598021
1037.4450000000002 0.33654957165980215
1037.73 0.311544571659802
1038.01 0.339879571659802
1038.295 0.321544571659802
1038.5749999999998 0.36154957165980206
1038.8600000000001 0.3282145716598024
1039.1399999999999 0.329879571659802
1039.4250000000002 0.34654457165980235
1039.705 0.3582145716598022
1039.99 0.3332145716598023
1040.27 0.33320957165980203
1040.5549999999998 0.3198795716598022
1040.835 0.34654957165980216
1041.115 0.3198795716598024
1041.4 0.34320957165980226
1041.68 0.31821457165980216
1041.9650000000001 0.33321457165980206
1042.245 0.3182095716598021
1042.53 0.3298795716598022
1042.81 0.35820957165980216
1043.095 0.3448795716598021
1043.375 0.341544571659802
1043.6599999999999 0.3448795716598021
1043.8 0.3498795716598022
1044.08 0.31320957165980223
1044.3600000000001 0.3532145716598021
1044.6399999999999 0.3348795716598021
1044.92 0.30821457165980215
1045.205 0.32654957165980214
1045.4850000000001 0.3232145716598023
1045.77 0.3632095716598023
1046.05 0.34820957165980215
1046.335 0.339879571659802
1046.615 0.3348795716598021
1046.9 0.331544571659802
1047.18 0.3382095716598019
1047.4650000000001 0.351544571659802
1047.745 0.3532145716598023
1048.025 0.3182095716598021
1048.31 0.3265445716598021
1048.59 0.3148795716598023
1048.875 0.34820957165980193
1049.1550000000002 0.3215445716598022
1049.44 0.349879571659802
1049.72 0.3265445716598019
1049.995 0.32821457165980217
1050.28 0.3265445716598021
1050.56 0.35654457165980236
1050.8449999999998 0.34321457165980207
1051.125 0.33320957165980203
1051.41 0.34987957165980244
1051.69 0.3398795716598022
1051.97 0.3332145716598023
1052.255 0.3465445716598021
1052.5349999999999 0.3382095716598019
1052.82 0.303209571659802
1053.1 0.3215445716598022
1053.385 0.34154457165980223
1053.66 0.34154957165980204
1053.94 0.33321457165980206
1054.225 0.3648795716598021
1054.505 0.351544571659802
1054.79 0.33321457165980206
1055.07 0.3782145716598022
1055.355 0.31654957165980213
1055.635 0.36320957165980183
1055.915 0.3382095716598019
1056.2 0.36654457165980214
1056.48 0.3548795716598021
1056.755 0.33321457165980206
1057.04 0.36987957165980245
1057.32 0.3448795716598021
1057.605 0.361544571659802
1057.885 0.3532145716598023
1058.165 0.3532145716598023
1058.45 0.3248795716598021
1058.73 0.3448795716598021
1059.01 0.33321457165980206
1059.29 0.3348795716598021
1059.575 0.3332145716598023
1059.71 0.3448795716598021
1059.995 0.36154957165980206
1060.275 0.36820957165980195
1060.56 0.37487957165980235
1060.8400000000001 0.35654457165980213
1061.12 0.36320957165980206
1061.405 0.3448795716598021
1061.68 0.35320957165980227
1061.96 0.3482095716598024
1062.245 0.37987957165980224
1062.525 0.358214571659802
1062.81 0.3348795716598021
1063.0900000000001 0.349879571659802
1063.37 0.32654957165980214
1063.655 0.369879571659802
1063.93 0.38487957165980213
1064.21 0.35154457165980224
1064.495 0.37487957165980235
1064.775 0.37154457165980204
1065.0549999999998 0.37154457165980226
1065.34 0.3732145716598023
1065.62 0.38487957165980213
1065.895 0.38487957165980213
1066.18 0.36154957165980206
1066.46 0.34987957165980244
1066.745 0.3648795716598021
1067.025 0.3748795716598019
1067.3049999999998 0.3598795716598022
1067.59 0.3948795716598019
1067.8649999999998 0.38320957165980185
1068.145 0.37820957165980196
1068.43 0.38987957165980247
1068.71 0.3732145716598023
1068.99 0.40154457165980184
1069.275 0.39654457165980195
1069.55 0.35321457165980186
1069.83 0.36987957165980245
1070.115 0.4198795716598023
1070.395 0.29821457165980236
1070.6750000000002 0.39154457165980205
1070.96 0.3865495716598024
1071.24 0.39321457165980234
1071.5149999999999 0.36987957165980245
1071.8 0.3648795716598021
1072.08 0.37820957165980196
1072.3600000000001 0.41154457165980207
1072.645 0.388214571659802
1072.92 0.389879571659802
1073.2 0.4132095716598021
1073.4850000000001 0.39821457165980223
1073.7649999999999 0.388214571659802
1074.045 0.3965445716598024
1074.325 0.39821457165980223
1074.605 0.4015445716598023
1074.885 0.40821457165980246
1075.165 0.4132095716598021
1075.45 0.3915495716598023
1075.73 0.37987957165980224
1075.865 0.4015445716598023
1076.145 0.3832145716598021
1076.4299999999998 0.39987957165980226
1076.71 0.3932145716598019
1076.9850000000001 0.388214571659802
1077.27 0.4265445716598022
1077.55 0.39821457165980223
1077.83 0.4148795716598024
1078.1100000000001 0.4115495716598023
1078.3899999999999 0.4065445716598022
1078.67 0.4115495716598023
1078.95 0.4148795716598024
1079.23 0.408214571659802
1079.5149999999999 0.4215445716598023
1079.79 0.37987957165980224
1080.07 0.42487957165980217
1080.355 0.4215495716598021
1080.635 0.4398795716598023
1080.915 0.43654957165980224
1081.1950000000002 0.4265445716598022
1081.475 0.4198795716598023
1081.755 0.40320957165980187
1082.0349999999999 0.41654457165980197
1082.32 0.456544571659802
1082.5949999999998 0.42487957165980217
1082.875 0.43321457165980237
1083.1550000000002 0.4115495716598023
1083.435 0.44320957165980235
1083.7150000000001 0.42987957165980206
1083.995 0.4332095716598021
1084.28 0.45321457165980195
1084.5549999999998 0.43987957165980185
1084.835 0.42321457165980214
1085.115 0.4465445716598022
1085.4 0.45321457165980195
1085.68 0.48154457165980236
1085.955 0.46987957165980254
1086.2350000000001 0.4715495716598024
1086.52 0.4698795716598021
1086.8 0.41654457165980197
1087.0749999999998 0.4382145716598018
1087.355 0.47487957165980244
1087.6399999999999 0.4515445716598021
1087.92 0.476544571659802
1088.1950000000002 0.4865495716598025
1088.475 0.4648795716598022
1088.76 0.47320957165980215
1089.04 0.4582145716598023
1089.315 0.4882145716598021
1089.595 0.48654457165980225
1089.88 0.4765495716598023
1090.155 0.46654457165980223
1090.435 0.5098795716598021
1090.7150000000001 0.5015445716598024
1090.995 0.49487957165980245
1091.13 0.49320957165980217
1091.415 0.513214571659802
1091.6950000000002 0.5015445716598019
1091.975 0.5048795716598022
1092.25 0.4715445716598021
1092.5349999999999 0.5182145716598023
1092.815 0.5365495716598023
1093.0900000000001 0.4982145716598019
1093.37 0.5365445716598021
1093.655 0.4982095716598025
1093.935 0.5598795716598024
1094.21 0.5048795716598022
1094.49 0.5565445716598021
1094.77 0.5065445716598023
1095.045 0.5432145716598022
1095.33 0.5482145716598021
1095.6100000000001 0.5248795716598023
1095.8899999999999 0.5282145716598021
1096.165 0.5715445716598022
1096.45 0.5265495716598021
1096.73 0.559879571659802
1097.005 0.5382095716598021
1097.2849999999999 0.5498795716598022
1097.565 0.5748795716598021
1097.8449999999998 0.5482095716598023
1098.125 0.5448795716598023
1098.4050000000002 0.5515445716598018
1098.68 0.5715445716598022
1098.96 0.5748795716598021
1099.245 0.5415495716598022
1099.525 0.534879571659802
1099.8 0.5948795716598021
1100.08 0.5782145716598024
1100.36 0.6115495716598025
1100.37 0.6423188412478302
1100.66 0.6023188412478302
1100.94 0.6056488412478302
1101.22 0.57564884124783
1101.5 0.6323188412478296
1101.78 0.61231884124783
1102.06 0.6423188412478302
1102.34 0.6289788412478299
1102.63 0.5556488412478295
1102.91 0.6189788412478301
1103.19 0.5623188412478302
1103.47 0.6256488412478298
1103.75 0.5923188412478295
1104.04 0.61231884124783
1104.32 0.61231884124783
1104.6 0.61564884124783
1104.88 0.6189788412478301
1105.16 0.6089788412478303
1105.44 0.5556488412478295
1105.72 0.5623188412478302
1106.01 0.6356488412478296
1106.29 0.5956488412478296
1106.57 0.6323188412478296
1106.85 0.5856488412478298
1107.13 0.6223188412478298
1107.42 0.6389788412478297
1107.7 0.6023188412478302
1107.98 0.5923188412478295
1108.26 0.5923188412478295
1108.54 0.6223188412478298
1108.82 0.61564884124783
1109.1 0.6456488412478303
1109.38 0.5889788412478298
1109.67 0.53564884124783
1109.95 0.6256488412478298
1110.23 0.5523188412478295
1110.51 0.6456488412478303
1110.79 0.5556488412478295
1111.07 0.6223188412478298
1111.35 0.6323188412478296
1111.63 0.5856488412478298
1111.92 0.5556488412478295
1112.2 0.57564884124783
1112.48 0.57564884124783
1112.76 0.5823188412478297
1113.04 0.5823188412478297
1113.32 0.61231884124783
1113.6 0.6056488412478302
1113.89 0.5689788412478303
1114.17 0.5689788412478303
1114.45 0.6289788412478299
1114.73 0.57231884124783
1115.01 0.5689788412478303
1115.29 0.5956488412478296
1115.57 0.57564884124783
1115.85 0.6223188412478298
1116.13 0.5556488412478295
1116.42 0.5656488412478302
1116.7 0.6223188412478298
1116.98 0.5189788412478296
1117.26 0.5889788412478298
1117.54 0.5689788412478303
1117.82 0.6089788412478303
1118.1 0.53897884124783
1118.38 0.61231884124783
1118.66 0.5289788412478302
1118.94 0.5456488412478298
1119.23 0.6023188412478302
1119.51 0.57564884124783
1119.79 0.5689788412478303
1120.07 0.5956488412478296
1120.35 0.5289788412478302
1120.63 0.5623188412478302
1120.91 0.5323188412478299
1121.19 0.5623188412478302
1121.47 0.6023188412478302
1121.75 0.5623188412478302
1122.03 0.5689788412478303
1122.32 0.5489788412478298
1122.6 0.5323188412478299
1122.88 0.5589788412478296
1123.16 0.5489788412478298
1123.44 0.5523188412478295
1123.72 0.53564884124783
1124.0 0.5223188412478301
1124.28 0.5223188412478301
1124.56 0.5623188412478302
1124.84 0.5523188412478295
1125.12 0.5123188412478303
1125.4 0.5523188412478295
1125.68 0.5589788412478296
1125.96 0.5556488412478295
1126.24 0.5123188412478303
1126.52 0.5189788412478296
1126.8 0.5489788412478298
1127.08 0.5023188412478297
1127.37 0.49564884124783
1127.65 0.53564884124783
1127.93 0.5289788412478302
1128.21 0.5489788412478298
1128.49 0.5156488412478295
1128.77 0.5656488412478302
1129.05 0.53897884124783
1129.33 0.5589788412478296
1129.61 0.5289788412478302
1129.89 0.5223188412478301
1130.17 0.5223188412478301
1130.45 0.48231884124783014
1130.73 0.49231884124782993
1131.01 0.53897884124783
1131.29 0.5189788412478296
1131.57 0.53897884124783
1131.85 0.5056488412478297
1132.13 0.5289788412478302
1132.41 0.49231884124782993
1132.69 0.53564884124783
1132.97 0.5023188412478297
1133.25 0.49231884124782993
1133.53 0.45897884124783
1133.81 0.5023188412478297
1134.09 0.5256488412478302
1134.37 0.5189788412478296
1134.65 0.5056488412478297
1134.93 0.49231884124782993
1135.21 0.48231884124783014
1135.49 0.4489788412478302
1135.77 0.5223188412478301
1136.06 0.48231884124783014
1136.34 0.5056488412478297
1136.62 0.48231884124783014
1136.9 0.5256488412478302
1137.17 0.48897884124783025
1137.45 0.4856488412478302
1137.73 0.5256488412478302
1138.01 0.5056488412478297
1138.29 0.47231884124783036
1138.57 0.48897884124783025
1138.86 0.46564884124782974
1139.14 0.4689788412478298
1139.42 0.45564884124782995
1139.69 0.4623188412478297
1139.97 0.4756488412478295
1140.25 0.4789788412478296
1140.53 0.49231884124782993
1140.81 0.4856488412478302
1141.09 0.4856488412478302
1141.37 0.4156488412478299
1141.65 0.4423188412478301
1141.93 0.4756488412478295
1142.21 0.47231884124783036
1142.49 0.4156488412478299
1142.77 0.4623188412478297
1143.05 0.49231884124782993
1143.33 0.4323188412478303
1143.61 0.35231884124783025
1143.89 0.4423188412478301
1144.17 0.4356488412478304
1144.45 0.45564884124782995
1144.73 0.45564884124782995
1145.01 0.42231884124782965
1145.29 0.42897884124782976
1145.57 0.44564884124783016
1145.85 0.44564884124783016
1146.13 0.4489788412478302
1146.41 0.44564884124783016
1146.69 0.45564884124782995
1146.97 0.42897884124782976
1147.25 0.4423188412478301
1147.53 0.4089788412478302
1147.81 0.41897884124782997
1148.08 0.43897884124782954
1148.36 0.4156488412478299
1148.64 0.4323188412478303
1148.92 0.48231884124783014
1149.2 0.44564884124783016
1149.48 0.45564884124782995
1149.76 0.43897884124782954
1150.04 0.41231884124782986
1150.32 0.41897884124782997
1150.6 0.42897884124782976
1150.88 0.4156488412478299
1151.16 0.4523188412478299
1151.44 0.43897884124782954
1151.72 0.4023188412478301
1152.0 0.4256488412478297
1152.28 0.3556488412478303
1152.56 0.41231884124782986
1152.83 0.4089788412478302
1153.11 0.4489788412478302
1153.39 0.4256488412478297
1153.67 0.45564884124782995
1153.95 0.45897884124783
1154.23 0.41897884124782997
1154.51 0.44564884124783016
1154.79 0.45564884124782995
1155.07 0.4089788412478302
1155.35 0.4423188412478301
1155.63 0.38564884124782967
1155.9 0.45897884124783
1156.18 0.3989788412478295
1156.46 0.3823188412478296
1156.74 0.4089788412478302
1157.02 0.43897884124782954
1157.3 0.45897884124783
1157.58 0.4489788412478302
1157.86 0.41897884124782997
1158.14 0.4489788412478302
1158.42 0.4156488412478299
1158.7 0.4256488412478297
1158.98 0.42231884124782965
1159.25 0.4089788412478302
1159.53 0.4356488412478304
1159.81 0.4056488412478301
1160.09 0.44564884124783016
1160.37 0.42897884124782976
1160.65 0.4023188412478301
1160.93 0.4423188412478301
1161.21 0.4056488412478301
1161.49 0.3923188412478303
1161.76 0.4323188412478303
1162.04 0.45564884124782995
1162.32 0.45564884124782995
1162.6 0.4023188412478301
1162.88 0.43897884124782954
1163.16 0.4323188412478303
1163.44 0.41897884124782997
1163.72 0.4623188412478297
1163.99 0.3923188412478303
1164.27 0.41231884124782986
1164.55 0.4323188412478303
1164.83 0.4056488412478301
1165.11 0.44564884124783016
1165.39 0.47231884124783036
1165.67 0.3989788412478295
1165.94 0.4156488412478299
1166.22 0.43897884124782954
1166.5 0.4256488412478297
1166.78 0.4489788412478302
1167.06 0.4156488412478299
1167.34 0.42231884124782965
1167.61 0.4056488412478301
1167.89 0.3989788412478295
1168.17 0.37897884124782993
1168.45 0.4056488412478301
1168.73 0.4089788412478302
1169.01 0.4023188412478301
1169.29 0.4023188412478301
1169.56 0.4423188412478301
1169.84 0.39564884124783034
1170.12 0.39564884124783034
1170.4 0.41231884124782986
1170.68 0.3923188412478303
1170.96 0.4023188412478301
1171.23 0.41897884124782997
1171.51 0.3889788412478297
1171.79 0.39564884124783034
1172.07 0.38564884124782967
1172.35 0.3923188412478303
1172.63 0.3889788412478297
1172.91 0.4489788412478302
1173.18 0.4023188412478301
1173.46 0.4489788412478302
1173.74 0.41231884124782986
1174.02 0.3923188412478303
1174.29 0.3889788412478297
1174.57 0.42231884124782965
1174.85 0.4489788412478302
1175.13 0.4489788412478302
1175.41 0.3889788412478297
1175.69 0.42897884124782976
1175.96 0.4689788412478298
1176.24 0.4156488412478299
1176.52 0.4489788412478302
1176.8 0.4523188412478299
1177.08 0.4156488412478299
1177.36 0.37897884124782993
1177.63 0.44564884124783016
1177.91 0.4323188412478303
1178.19 0.42897884124782976
1178.47 0.45897884124783
1178.74 0.4356488412478304
1179.02 0.4023188412478301
1179.3 0.41897884124782997
1179.58 0.44564884124783016
1179.86 0.4323188412478303
1180.13 0.4256488412478297
1180.41 0.36231884124783004
1180.69 0.4023188412478301
1180.97 0.3989788412478295
1181.25 0.41897884124782997
1181.52 0.42231884124782965
1181.8 0.41897884124782997
1182.08 0.41897884124782997
1182.36 0.3656488412478301
1182.63 0.4523188412478299
1182.91 0.3989788412478295
1183.19 0.43897884124782954
1183.47 0.43897884124782954
1183.75 0.4256488412478297
1184.02 0.4523188412478299
1184.3 0.4423188412478301
1184.58 0.45564884124782995
1184.86 0.42231884124782965
1185.13 0.4089788412478302
1185.41 0.4056488412478301
1185.69 0.4089788412478302
1185.97 0.4489788412478302
1186.25 0.4089788412478302
1186.52 0.4056488412478301
1186.8 0.44564884124783016
1187.08 0.4023188412478301
1187.35 0.43897884124782954
1187.63 0.3823188412478296
1187.91 0.4489788412478302
1188.19 0.41231884124782986
1188.47 0.44564884124783016
1188.74 0.4023188412478301
1189.02 0.41897884124782997
1189.3 0.45564884124782995
1189.57 0.45897884124783
1189.85 0.42897884124782976
1190.13 0.4056488412478301
1190.41 0.4056488412478301
1190.69 0.47231884124783036
1190.96 0.4156488412478299
1191.24 0.4689788412478298
1191.52 0.44564884124783016
1191.79 0.4156488412478299
1192.07 0.4056488412478301
1192.35 0.4089788412478302
1192.63 0.43897884124782954
1192.9 0.43897884124782954
1193.18 0.4356488412478304
1193.46 0.42897884124782976
1193.73 0.41897884124782997
1194.01 0.4156488412478299
1194.29 0.4023188412478301
1194.57 0.41897884124782997
1194.84 0.3989788412478295
1195.12 0.4489788412478302
1195.4 0.43897884124782954
1195.67 0.4089788412478302
1195.95 0.41897884124782997
1196.23 0.39564884124783034
1196.51 0.4056488412478301
1196.78 0.4256488412478297
1197.06 0.4056488412478301
1197.34 0.45897884124783
1197.61 0.4423188412478301
1197.89 0.42897884124782976
1198.17 0.41231884124782986
1198.45 0.3823188412478296
1198.72 0.4089788412478302
1199.0 0.4056488412478301
1199.28 0.47231884124783036
1199.55 0.39564884124783034
1199.83 0.4256488412478297
1200.11 0.4489788412478302
1200.38 0.4423188412478301
1200.66 0.3756488412478299
1200.94 0.45897884124783
1201.22 0.39564884124783034
1201.49 0.47231884124783036
1201.77 0.41897884124782997
1202.04 0.4423188412478301
1202.32 0.4256488412478297
1202.6 0.4256488412478297
1202.88 0.4156488412478299
1203.15 0.41897884124782997
1203.43 0.4156488412478299
1203.71 0.4423188412478301
1203.98 0.3989788412478295
1204.26 0.39564884124783034
1204.54 0.4356488412478304
1204.81 0.4323188412478303
1205.09 0.4089788412478302
1205.37 0.41897884124782997
1205.64 0.41231884124782986
1205.92 0.4523188412478299
1206.2 0.4156488412478299
1206.47 0.4523188412478299
1206.75 0.3656488412478301
1207.03 0.4489788412478302
1207.3 0.4089788412478302
1207.58 0.43897884124782954
1207.86 0.4323188412478303
1208.13 0.3889788412478297
1208.41 0.42231884124782965
1208.68 0.4523188412478299
1208.96 0.44564884124783016
1209.24 0.4256488412478297
1209.51 0.41231884124782986
1209.79 0.4256488412478297
1210.07 0.39564884124783034
1210.34 0.41897884124782997
1210.62 0.4056488412478301
1210.9 0.41897884124782997
1211.17 0.39564884124783034
1211.45 0.4423188412478301
1211.73 0.42897884124782976
1212.0 0.4356488412478304
1212.28 0.4256488412478297
1212.55 0.42231884124782965
1212.83 0.37897884124782993
1213.11 0.41897884124782997
1213.38 0.43897884124782954
1213.66 0.4156488412478299
1213.94 0.44564884124783016
1214.21 0.45564884124782995
1214.49 0.48231884124783014
1214.76 0.4489788412478302
1215.04 0.44564884124783016
1215.32 0.3989788412478295
1215.59 0.42897884124782976
1215.87 0.44564884124783016
1216.14 0.44564884124783016
1216.42 0.3923188412478303
1216.7 0.4089788412478302
1216.97 0.41897884124782997
1217.25 0.42231884124782965
1217.53 0.39564884124783034
1217.8 0.4156488412478299
1218.08 0.4756488412478295
1218.35 0.38564884124782967
1218.63 0.42231884124782965
1218.91 0.42231884124782965
1219.18 0.47231884124783036
1219.46 0.46564884124782974
1219.73 0.4356488412478304
1220.01 0.4089788412478302
1220.28 0.42231884124782965
1220.56 0.3989788412478295
1220.84 0.43897884124782954
1221.11 0.4523188412478299
1221.39 0.4323188412478303
1221.66 0.48897884124783025
1221.94 0.4256488412478297
1222.22 0.4356488412478304
1222.49 0.4023188412478301
1222.77 0.42897884124782976
1223.04 0.4056488412478301
1223.32 0.4423188412478301
1223.6 0.4089788412478302
1223.87 0.44564884124783016
1224.15 0.4623188412478297
1224.42 0.42897884124782976
1224.7 0.41897884124782997
1224.97 0.45897884124783
1225.25 0.44564884124783016
1225.53 0.43897884124782954
1225.8 0.4523188412478299
1226.08 0.4323188412478303
1226.35 0.4489788412478302
1226.63 0.3989788412478295
1226.9 0.4156488412478299
1227.18 0.45564884124782995
1227.45 0.4023188412478301
1227.73 0.4356488412478304
1228.0 0.4323188412478303
1228.28 0.4689788412478298
1228.56 0.47231884124783036
1228.83 0.45897884124783
1229.11 0.3723188412478298
1229.38 0.4623188412478297
1229.66 0.42231884124782965
1229.93 0.4156488412478299
1230.21 0.3823188412478296
1230.48 0.44564884124783016
1230.76 0.48231884124783014
1231.04 0.4323188412478303
1231.31 0.43897884124782954
1231.59 0.45564884124782995
1231.86 0.4623188412478297
1232.14 0.4623188412478297
1232.41 0.4689788412478298
1232.69 0.41231884124782986
1232.96 0.47231884124783036
1233.24 0.4756488412478295
1233.51 0.4523188412478299
1233.79 0.47231884124783036
1234.06 0.43897884124782954
1234.34 0.49897884124783004
1234.61 0.4256488412478297
1234.89 0.4023188412478301
1235.16 0.41231884124782986
1235.44 0.3923188412478303
1235.71 0.42231884124782965
1235.99 0.4489788412478302
1236.26 0.48231884124783014
1236.54 0.48897884124783025
1236.82 0.44564884124783016
1237.09 0.4523188412478299
1237.36 0.5223188412478301
1237.64 0.44564884124783016
1237.91 0.45897884124783
1238.19 0.4489788412478302
1238.47 0.45564884124782995
1238.74 0.4256488412478297
1239.02 0.4523188412478299
1239.29 0.4623188412478297
1239.56 0.45897884124783
1239.84 0.4323188412478303
1240.11 0.4523188412478299
1240.39 0.4523188412478299
1240.67 0.45564884124782995
1240.94 0.4323188412478303
1241.21 0.4356488412478304
1241.49 0.44564884124783016
1241.76 0.5056488412478297
1242.04 0.4689788412478298
1242.31 0.44564884124783016
1242.59 0.4789788412478296
1242.86 0.48231884124783014
1243.14 0.4756488412478295
1243.41 0.4356488412478304
1243.69 0.5123188412478303
1243.96 0.4356488412478304
1244.24 0.46564884124782974
1244.51 0.4023188412478301
1244.79 0.4423188412478301
1245.06 0.48231884124783014
1245.34 0.42231884124782965
1245.61 0.4623188412478297
1245.89 0.4056488412478301
1246.16 0.48231884124783014
1246.44 0.4156488412478299
1246.71 0.48231884124783014
1246.98 0.46564884124782974
1247.26 0.4756488412478295
1247.53 0.41897884124782997
1247.81 0.4489788412478302
1248.08 0.4689788412478298
1248.36 0.4489788412478302
1248.63 0.4523188412478299
1248.91 0.44564884124783016
1249.18 0.4356488412478304
1249.45 0.49564884124783
1249.73 0.4856488412478302
1250.0 0.41897884124782997
1250.28 0.45564884124782995
1250.55 0.44564884124783016
1250.83 0.49231884124782993
1251.1 0.4756488412478295
1251.37 0.4356488412478304
1251.65 0.4856488412478302
1251.92 0.41897884124782997
1252.2 0.49564884124783
1252.47 0.4756488412478295
1252.75 0.4523188412478299
1253.02 0.47231884124783036
1253.3 0.4689788412478298
1253.57 0.4756488412478295
1253.84 0.46564884124782974
1254.12 0.5123188412478303
1254.39 0.48231884124783014
1254.67 0.4623188412478297
1254.94 0.4689788412478298
1255.21 0.49231884124782993
1255.49 0.4256488412478297
1255.76 0.3923188412478303
1256.04 0.4789788412478296
1256.31 0.4489788412478302
1256.58 0.4856488412478302
1256.86 0.4323188412478303
1257.13 0.46564884124782974
1257.41 0.48231884124783014
1257.68 0.4789788412478296
1257.96 0.49564884124783
1258.23 0.4689788412478298
1258.5 0.42897884124782976
1258.78 0.5056488412478297
1259.05 0.4489788412478302
1259.33 0.5056488412478297
1259.6 0.4423188412478301
1259.87 0.4789788412478296
1260.15 0.42897884124782976
1260.42 0.48231884124783014
1260.7 0.4523188412478299
1260.97 0.4356488412478304
1261.24 0.49897884124783004
1261.52 0.49564884124783
1261.79 0.45564884124782995
1262.06 0.45564884124782995
1262.34 0.44564884124783016
1262.61 0.47231884124783036
1262.89 0.4689788412478298
1263.16 0.45564884124782995
1263.43 0.48897884124783025
1263.71 0.41897884124782997
1263.98 0.4689788412478298
1264.25 0.46564884124782974
1264.53 0.4856488412478302
1264.8 0.5223188412478301
1265.08 0.4623188412478297
1265.35 0.4756488412478295
1265.62 0.5156488412478295
1265.9 0.45564884124782995
1266.17 0.5289788412478302
1266.44 0.45564884124782995
1266.72 0.5156488412478295
1266.99 0.4689788412478298
1267.27 0.47231884124783036
1267.54 0.4756488412478295
1267.81 0.4623188412478297
1268.09 0.5023188412478297
1268.36 0.49897884124783004
1268.63 0.4423188412478301
1268.91 0.44564884124783016
1269.18 0.5523188412478295
1269.45 0.4623188412478297
1269.73 0.4856488412478302
1270.0 0.49897884124783004
1270.27 0.4756488412478295
1270.55 0.4523188412478299
1270.82 0.48897884124783025
1271.09 0.46564884124782974
1271.37 0.46564884124782974
1271.64 0.5189788412478296
1271.91 0.45897884124783
1272.19 0.49564884124783
1272.46 0.49564884124783
1272.73 0.46564884124782974
1273.01 0.49564884124783
1273.28 0.46564884124782974
1273.55 0.5023188412478297
1273.83 0.48231884124783014
1274.1 0.4789788412478296
1274.37 0.47231884124783036
1274.65 0.43897884124782954
1274.92 0.5023188412478297
1275.19 0.5123188412478303
1275.47 0.4489788412478302
1275.74 0.48231884124783014
1276.01 0.46564884124782974
1276.29 0.4756488412478295
1276.56 0.44564884124783016
1276.83 0.48897884124783025
1277.1 0.49564884124783
1277.38 0.5289788412478302
1277.65 0.48231884124783014
1277.93 0.4756488412478295
1278.2 0.4756488412478295
1278.47 0.5089788412478298
1278.74 0.49564884124783
1279.02 0.47231884124783036
1279.29 0.46564884124782974
1279.56 0.4689788412478298
1279.84 0.5089788412478298
1280.11 0.49564884124783
1280.38 0.49897884124783004
1280.65 0.43897884124782954
1280.93 0.4623188412478297
1281.2 0.46564884124782974
1281.47 0.5156488412478295
1281.75 0.4856488412478302
1282.02 0.5056488412478297
1282.29 0.45564884124782995
1282.56 0.4789788412478296
1282.84 0.4623188412478297
1283.11 0.45564884124782995
1283.38 0.4789788412478296
1283.66 0.49897884124783004
1283.93 0.5089788412478298
1284.2 0.4523188412478299
1284.47 0.5156488412478295
1284.75 0.46564884124782974
1285.02 0.5056488412478297
1285.29 0.5223188412478301
1285.56 0.49897884124783004
1285.84 0.5023188412478297
1286.11 0.4789788412478296
1286.38 0.4789788412478296
1286.65 0.4856488412478302
1286.93 0.47231884124783036
1287.2 0.46564884124782974
1287.47 0.4523188412478299
1287.74 0.5256488412478302
1288.02 0.5123188412478303
1288.29 0.5089788412478298
1288.56 0.5023188412478297
1288.84 0.5189788412478296
1289.11 0.48231884124783014
1289.38 0.5056488412478297
1289.65 0.4356488412478304
1289.92 0.47231884124783036
1290.2 0.4756488412478295
1290.47 0.48897884124783025
1290.74 0.4523188412478299
1291.02 0.47231884124783036
1291.29 0.49564884124783
1291.56 0.5056488412478297
1291.83 0.48897884124783025
1292.1 0.5289788412478302
1292.38 0.5456488412478298
1292.65 0.49897884124783004
1292.92 0.46564884124782974
1293.19 0.5089788412478298
1293.47 0.5023188412478297
1293.74 0.5256488412478302
1294.01 0.48897884124783025
1294.28 0.5189788412478296
1294.56 0.4756488412478295
1294.83 0.48231884124783014
1295.1 0.48897884124783025
1295.37 0.5323188412478299
1295.64 0.5023188412478297
1295.92 0.48897884124783025
1296.19 0.4623188412478297
1296.46 0.5256488412478302
1296.73 0.5256488412478302
1297.0 0.5156488412478295
1297.28 0.53897884124783
1297.55 0.5423188412478297
1297.82 0.5023188412478297
1298.09 0.48897884124783025
1298.36 0.4856488412478302
1298.64 0.5256488412478302
1298.91 0.5089788412478298
1299.18 0.5323188412478299
1299.45 0.5023188412478297
1299.72 0.5556488412478295
1300.0 0.49564884124783
1300.27 0.5056488412478297
1300.54 0.5489788412478298
1300.81 0.48897884124783025
1301.08 0.5589788412478296
1301.36 0.5456488412478298
1301.63 0.5223188412478301
1301.9 0.5289788412478302
1302.17 0.5556488412478295
1302.44 0.5323188412478299
1302.71 0.5589788412478296
1302.99 0.5423188412478297
1303.26 0.5056488412478297
1303.53 0.5323188412478299
1303.8 0.4856488412478302
1304.07 0.5123188412478303
1304.35 0.5089788412478298
1304.62 0.5289788412478302
1304.89 0.5156488412478295
1305.16 0.5456488412478298
1305.43 0.5189788412478296
1305.7 0.53897884124783
1305.98 0.53564884124783
1306.25 0.53564884124783
1306.52 0.5123188412478303
1306.79 0.5256488412478302
1307.06 0.5023188412478297
1307.33 0.4523188412478299
1307.61 0.5523188412478295
1307.88 0.5189788412478296
1308.15 0.5589788412478296
1308.42 0.48231884124783014
1308.69 0.57564884124783
1308.96 0.5189788412478296
1309.24 0.5489788412478298
1309.51 0.53897884124783
1309.78 0.5189788412478296
1310.05 0.5089788412478298
1310.32 0.5189788412478296
1310.59 0.5589788412478296
1310.86 0.57231884124783
1311.14 0.5189788412478296
1311.41 0.5323188412478299
1311.68 0.5089788412478298
1311.95 0.5123188412478303
1312.22 0.53564884124783
1312.49 0.5123188412478303
1312.76 0.5223188412478301
1313.03 0.5089788412478298
1313.31 0.5256488412478302
1313.58 0.5156488412478295
1313.85 0.5456488412478298
1314.12 0.49231884124782993
1314.39 0.5256488412478302
1314.66 0.5323188412478299
1314.93 0.5556488412478295
1315.2 0.5056488412478297
1315.47 0.5556488412478295
1315.75 0.5523188412478295
1316.02 0.5089788412478298
1316.29 0.5189788412478296
1316.56 0.5656488412478302
1316.83 0.5089788412478298
1317.1 0.5523188412478295
1317.37 0.5256488412478302
1317.64 0.5123188412478303
1317.91 0.5289788412478302
1318.19 0.5289788412478302
1318.46 0.53564884124783
1318.73 0.5789788412478301
1319.0 0.5523188412478295
1319.27 0.5056488412478297
1319.54 0.5123188412478303
1319.81 0.5289788412478302
1320.08 0.5223188412478301
1320.35 0.5656488412478302
1320.63 0.5056488412478297
1320.9 0.5289788412478302
1321.17 0.53897884124783
1321.44 0.5523188412478295
1321.71 0.5623188412478302
1321.98 0.53897884124783
1322.25 0.48897884124783025
1322.52 0.5856488412478298
1322.79 0.5823188412478297
1323.06 0.5523188412478295
1323.33 0.5523188412478295
1323.6 0.5456488412478298
1323.88 0.5456488412478298
1324.15 0.5023188412478297
1324.42 0.5089788412478298
1324.69 0.5923188412478295
1324.96 0.5189788412478296
1325.23 0.5523188412478295
1325.5 0.5256488412478302
1325.77 0.5556488412478295
1326.04 0.5289788412478302
1326.31 0.53564884124783
1326.58 0.5989788412478296
1326.85 0.5223188412478301
1327.12 0.49897884124783004
1327.39 0.53564884124783
1327.67 0.5289788412478302
1327.94 0.5156488412478295
1328.21 0.5156488412478295
1328.48 0.4689788412478298
1328.75 0.5123188412478303
1329.02 0.53564884124783
1329.29 0.5089788412478298
1329.56 0.5256488412478302
1329.83 0.61231884124783
1330.1 0.5156488412478295
1330.37 0.5656488412478302
1330.64 0.5189788412478296
1330.91 0.5223188412478301
1331.18 0.5156488412478295
1331.45 0.5589788412478296
1331.72 0.5323188412478299
1331.99 0.5489788412478298
1332.26 0.5089788412478298
1332.53 0.5523188412478295
1332.8 0.57564884124783
1333.07 0.5323188412478299
1333.34 0.5156488412478295
1333.61 0.5823188412478297
1333.88 0.5089788412478298
1334.15 0.6023188412478302
1334.42 0.5589788412478296
1334.69 0.5589788412478296
1334.97 0.4789788412478296
1335.24 0.5523188412478295
1335.51 0.5223188412478301
1335.78 0.5323188412478299
1336.04 0.53897884124783
1336.31 0.49231884124782993
1336.59 0.53897884124783
1336.86 0.49897884124783004
1337.13 0.4789788412478296
1337.4 0.5523188412478295
1337.67 0.5256488412478302
1337.94 0.5489788412478298
1338.21 0.5423188412478297
1338.48 0.53564884124783
1338.75 0.5556488412478295
1339.02 0.53564884124783
1339.29 0.5623188412478302
1339.56 0.49231884124782993
1339.83 0.53564884124783
1340.1 0.5589788412478296
1340.37 0.5423188412478297
1340.64 0.5189788412478296
1340.91 0.5289788412478302
1341.18 0.5423188412478297
1341.45 0.57231884124783
1341.71 0.5656488412478302
1341.98 0.57231884124783
1342.25 0.5456488412478298
1342.53 0.4856488412478302
1342.8 0.5789788412478301
1343.06 0.5323188412478299
1343.33 0.5223188412478301
1343.6 0.5289788412478302
1343.87 0.5323188412478299
1344.14 0.5789788412478301
1344.41 0.5456488412478298
1344.68 0.5423188412478297
1344.95 0.5123188412478303
1345.22 0.5523188412478295
1345.49 0.5623188412478302
1345.76 0.5556488412478295
1346.03 0.6023188412478302
1346.3 0.5789788412478301
1346.57 0.5289788412478302
1346.84 0.57231884124783
1347.11 0.5456488412478298
1347.38 0.57231884124783
1347.65 0.49897884124783004
1347.92 0.5789788412478301
1348.19 0.5856488412478298
1348.46 0.5623188412478302
1348.73 0.5323188412478299
1349.0 0.57231884124783
1349.27 0.5623188412478302
1349.54 0.5856488412478298
1349.8 0.5589788412478296
1350.07 0.5656488412478302
1350.35 0.5323188412478299
1350.61 0.6189788412478301
1350.88 0.5789788412478301
1351.15 0.5423188412478297
1351.42 0.5589788412478296
1351.69 0.6023188412478302
1351.96 0.5123188412478303
1352.23 0.5823188412478297
1352.5 0.5789788412478301
1352.77 0.5489788412478298
1353.04 0.5556488412478295
1353.31 0.5656488412478302
1353.58 0.5789788412478301
1353.85 0.5856488412478298
1354.12 0.57231884124783
1354.38 0.53564884124783
1354.65 0.5489788412478298
1354.92 0.5823188412478297
1355.19 0.6023188412478302
1355.46 0.5823188412478297
1355.73 0.5589788412478296
1356.0 0.5956488412478296
1356.27 0.5489788412478298
1356.54 0.5123188412478303
1356.81 0.5923188412478295
1357.08 0.57231884124783
1357.34 0.53564884124783
1357.61 0.5856488412478298
1357.88 0.53564884124783
1358.15 0.5323188412478299
1358.42 0.5656488412478302
1358.69 0.5623188412478302
1358.96 0.5823188412478297
1359.23 0.5323188412478299
1359.5 0.5656488412478302
1359.77 0.5556488412478295
1360.04 0.61564884124783
1360.3 0.6223188412478298
1360.57 0.5789788412478301
1360.84 0.5456488412478298
1361.11 0.5656488412478302
1361.38 0.5923188412478295
1361.65 0.5623188412478302
1361.92 0.5923188412478295
1362.19 0.5889788412478298
1362.46 0.57231884124783
1362.72 0.5256488412478302
1362.99 0.53897884124783
1363.26 0.5856488412478298
1363.53 0.5189788412478296
1363.8 0.5989788412478296
1364.07 0.5623188412478302
1364.34 0.5556488412478295
1364.61 0.5923188412478295
1364.87 0.5823188412478297
1365.14 0.57231884124783
1365.41 0.5789788412478301
1365.68 0.53897884124783
1365.95 0.5989788412478296
1366.22 0.5323188412478299
1366.49 0.6089788412478303
1366.75 0.53897884124783
1367.02 0.6189788412478301
1367.29 0.5856488412478298
1367.56 0.5923188412478295
1367.83 0.5956488412478296
1368.1 0.5989788412478296
1368.37 0.6023188412478302
1368.63 0.5956488412478296
1368.9 0.5189788412478296
1369.17 0.5656488412478302
1369.44 0.5556488412478295
1369.71 0.6056488412478302
1369.98 0.57564884124783
1370.25 0.61231884124783
1370.51 0.5856488412478298
1370.78 0.57564884124783
1371.05 0.6289788412478299
1371.32 0.5656488412478302
1371.59 0.5556488412478295
1371.86 0.5889788412478298
1372.12 0.5689788412478303
1372.39 0.5589788412478296
1372.66 0.6389788412478297
1372.93 0.5989788412478296
1373.2 0.5789788412478301
1373.47 0.5856488412478298
1373.73 0.5823188412478297
1374.0 0.57231884124783
1374.27 0.5889788412478298
1374.54 0.5656488412478302
1374.81 0.5989788412478296
1375.07 0.57231884124783
1375.34 0.5823188412478297
1375.61 0.5889788412478298
1375.88 0.61564884124783
1376.15 0.6289788412478299
1376.42 0.5489788412478298
1376.68 0.5856488412478298
1376.95 0.5923188412478295
1377.22 0.5656488412478302
1377.49 0.5923188412478295
1377.76 0.61564884124783
1378.03 0.5423188412478297
1378.29 0.6489788412478295
1378.56 0.61231884124783
1378.83 0.61231884124783
1379.1 0.5489788412478298
1379.36 0.6289788412478299
1379.63 0.5856488412478298
1379.9 0.5789788412478301
1380.17 0.6056488412478302
1380.44 0.57564884124783
1380.7 0.61231884124783
1380.97 0.5589788412478296
1381.24 0.5556488412478295
1381.51 0.6256488412478298
1381.78 0.6023188412478302
1382.04 0.5523188412478295
1382.31 0.5889788412478298
1382.58 0.6023188412478302
1382.85 0.6089788412478303
1383.11 0.5856488412478298
1383.38 0.61564884124783
1383.65 0.5689788412478303
1383.92 0.5956488412478296
1384.19 0.6056488412478302
1384.45 0.5789788412478301
1384.72 0.5856488412478298
1384.99 0.5656488412478302
1385.26 0.6023188412478302
1385.52 0.5823188412478297
1385.79 0.53564884124783
1386.06 0.6023188412478302
1386.33 0.6056488412478302
1386.6 0.6056488412478302
1386.86 0.6289788412478299
1387.13 0.5689788412478303
1387.4 0.6023188412478302
1387.66 0.6323188412478296
1387.93 0.6056488412478302
1388.2 0.6289788412478299
1388.47 0.6056488412478302
1388.74 0.6023188412478302
1389.0 0.5989788412478296
1389.27 0.5589788412478296
1389.54 0.6089788412478303
1389.81 0.6189788412478301
1390.07 0.65231884124783
1390.34 0.61231884124783
1390.61 0.5789788412478301
1390.88 0.5656488412478302
1391.14 0.5956488412478296
1391.41 0.5923188412478295
1391.68 0.5456488412478298
1391.94 0.6256488412478298
1392.21 0.5523188412478295
1392.48 0.5789788412478301
1392.75 0.5956488412478296
1393.02 0.5456488412478298
1393.28 0.5823188412478297
1393.55 0.5923188412478295
1393.82 0.5523188412478295
1394.08 0.5823188412478297
1394.35 0.5656488412478302
1394.62 0.5989788412478296
1394.89 0.6089788412478303
1395.15 0.6289788412478299
1395.42 0.5923188412478295
1395.69 0.57564884124783
1395.95 0.61231884124783
1396.22 0.57564884124783
1396.49 0.6256488412478298
1396.76 0.5589788412478296
1397.02 0.61564884124783
1397.29 0.5223188412478301
1397.56 0.6056488412478302
1397.82 0.6056488412478302
1398.09 0.6289788412478299
1398.36 0.6023188412478302
1398.62 0.5423188412478297
1398.89 0.6489788412478295
1399.16 0.6223188412478298
1399.43 0.61231884124783
1399.69 0.5889788412478298
1399.96 0.6356488412478296
1400.23 0.6589788412478301
1400.49 0.5956488412478296
1400.76 0.6023188412478302
1401.03 0.61564884124783
1401.3 0.57231884124783
1401.56 0.5989788412478296
1401.83 0.5589788412478296
1402.09 0.6089788412478303
1402.36 0.57231884124783
1402.63 0.5023188412478297
1402.89 0.5089788412478298
1403.16 0.5889788412478298
1403.43 0.5656488412478302
1403.7 0.5923188412478295
1403.96 0.5856488412478298
1404.23 0.61231884124783
1404.5 0.57231884124783
1404.76 0.5956488412478296
1405.03 0.6056488412478302
1405.3 0.5856488412478298
1405.56 0.5889788412478298
1405.83 0.57231884124783
1406.1 0.6223188412478298
1406.36 0.57564884124783
1406.63 0.6256488412478298
1406.9 0.5789788412478301
1407.16 0.6089788412478303
1407.43 0.6389788412478297
1407.7 0.5523188412478295
1407.96 0.6056488412478302
1408.23 0.53564884124783
1408.5 0.6556488412478301
1408.76 0.5823188412478297
1409.03 0.5989788412478296
1409.29 0.5656488412478302
1409.56 0.5989788412478296
1409.83 0.5956488412478296
1410.09 0.5889788412478298
1410.36 0.65231884124783
1410.63 0.5523188412478295
1410.89 0.5689788412478303
1411.16 0.5989788412478296
1411.43 0.6456488412478303
1411.69 0.61231884124783
1411.96 0.57231884124783
1412.23 0.57564884124783
1412.49 0.6223188412478298
1412.76 0.5656488412478302
1413.02 0.5956488412478296
1413.29 0.5956488412478296
1413.56 0.5656488412478302
1413.82 0.5889788412478298
1414.09 0.61564884124783
1414.36 0.61231884124783
1414.62 0.6589788412478301
1414.89 0.6456488412478303
1415.16 0.6389788412478297
1415.42 0.5623188412478302
1415.69 0.6656488412478299
1415.95 0.6256488412478298
1416.22 0.5956488412478296
1416.48 0.57231884124783
1416.75 0.6356488412478296
1417.02 0.5856488412478298
1417.28 0.6323188412478296
1417.55 0.5823188412478297
1417.82 0.5656488412478302
1418.08 0.6256488412478298
1418.35 0.57231884124783
1418.61 0.5889788412478298
1418.88 0.6056488412478302
1419.15 0.5823188412478297
1419.41 0.5823188412478297
1419.68 0.6089788412478303
1419.94 0.6289788412478299
1420.21 0.53897884124783
1420.48 0.5823188412478297
1420.74 0.5856488412478298
1421.01 0.6223188412478298
1421.27 0.57231884124783
1421.54 0.6289788412478299
1421.81 0.5656488412478302
1422.07 0.6223188412478298
1422.34 0.6023188412478302
1422.6 0.53897884124783
1422.87 0.5989788412478296
1423.13 0.5323188412478299
1423.4 0.6023188412478302
1423.67 0.5989788412478296
1423.93 0.6056488412478302
1424.2 0.5989788412478296
1424.46 0.5989788412478296
1424.73 0.5889788412478298
1424.99 0.5923188412478295
1425.26 0.5623188412478302
1425.53 0.61564884124783
1425.79 0.61231884124783
1426.06 0.6356488412478296
1426.32 0.57564884124783
1426.59 0.5789788412478301
1426.85 0.6056488412478302
1427.12 0.5989788412478296
1427.39 0.6323188412478296
1427.65 0.5823188412478297
1427.92 0.5656488412478302
1428.18 0.5523188412478295
1428.45 0.5656488412478302
1428.71 0.5823188412478297
1428.98 0.6223188412478298
1429.24 0.6056488412478302
1429.51 0.5323188412478299
1429.78 0.61231884124783
1430.04 0.6256488412478298
1430.31 0.5623188412478302
1430.57 0.6056488412478302
1430.84 0.6356488412478296
1431.1 0.6256488412478298
1431.37 0.6223188412478298
1431.63 0.6223188412478298
1431.9 0.5989788412478296
1432.16 0.6256488412478298
1432.43 0.6389788412478297
1432.69 0.6023188412478302
1432.96 0.57231884124783
1433.22 0.6423188412478302
1433.49 0.6056488412478302
1433.76 0.6223188412478298
1434.02 0.6189788412478301
1434.29 0.5989788412478296
1434.55 0.5689788412478303
1434.82 0.6356488412478296
1435.08 0.6089788412478303
1435.35 0.5423188412478297
1435.61 0.5956488412478296
1435.88 0.6456488412478303
1436.14 0.6056488412478302
1436.41 0.5823188412478297
1436.67 0.6389788412478297
1436.94 0.6256488412478298
1437.2 0.5956488412478296
1437.47 0.5889788412478298
1437.73 0.6056488412478302
1438.0 0.6089788412478303
1438.26 0.6256488412478298
1438.53 0.6023188412478302
1438.79 0.61231884124783
1439.06 0.5956488412478296
1439.32 0.6289788412478299
1439.59 0.6356488412478296
1439.85 0.5856488412478298
1440.12 0.6223188412478298
1440.38 0.5956488412478296
1440.65 0.5889788412478298
1440.91 0.6056488412478302
1441.18 0.6189788412478301
1441.44 0.6456488412478303
1441.71 0.5923188412478295
1441.97 0.6389788412478297
1442.24 0.61231884124783
1442.5 0.53897884124783
1442.77 0.61231884124783
1443.03 0.6189788412478301
1443.3 0.5956488412478296
1443.56 0.6056488412478302
1443.83 0.5923188412478295
1444.09 0.6023188412478302
1444.35 0.5989788412478296
1444.62 0.6189788412478301
1444.89 0.65231884124783
1445.15 0.6456488412478303
1445.41 0.5589788412478296
1445.68 0.6189788412478301
1445.94 0.5923188412478295
1446.21 0.6689788412478299
1446.47 0.6223188412478298
1446.74 0.6389788412478297
1447.0 0.57564884124783
1447.27 0.6456488412478303
1447.53 0.5823188412478297
1447.8 0.6389788412478297
1448.06 0.5489788412478298
1448.33 0.6489788412478295
1448.59 0.6623188412478298
1448.85 0.6356488412478296
1449.12 0.5823188412478297
1449.38 0.6456488412478303
1449.65 0.61564884124783
1449.91 0.61231884124783
1450.18 0.6423188412478302
1450.44 0.6056488412478302
1450.71 0.6423188412478302
1450.97 0.6023188412478302
1451.23 0.6389788412478297
1451.5 0.6356488412478296
1451.76 0.6556488412478301
1452.03 0.6323188412478296
1452.29 0.61231884124783
1452.55 0.6289788412478299
1452.82 0.57564884124783
1453.08 0.61564884124783
1453.35 0.6623188412478298
1453.61 0.6023188412478302
1453.9050000000002 0.6343211913177764
1454.17 0.5659861913177762
1454.44 0.569321191317776
1454.705 0.5909861913177761
1454.9650000000001 0.5643211913177761
1455.2350000000001 0.5609861913177763
1455.5 0.5693161913177762
1455.77 0.5459861913177761
1456.0349999999999 0.5426561913177761
1456.3049999999998 0.5576561913177762
1456.565 0.5909861913177765
1456.83 0.567656191317776
1457.1 0.5526511913177765
1457.365 0.6009861913177763
1457.63 0.569321191317776
1457.895 0.557651191317776
1458.1599999999999 0.6143211913177764
1458.4299999999998 0.575986191317776
1458.6950000000002 0.5959861913177764
1458.9650000000001 0.5826511913177763
1459.095 0.5826511913177763
1459.3600000000001 0.6009861913177763
1459.625 0.5493161913177762
1459.8899999999999 0.6176561913177763
1460.1599999999999 0.6359861913177765
1460.425 0.579316191317776
1460.69 0.5976511913177764
1460.955 0.5959861913177764
1461.22 0.5859861913177762
1461.4850000000001 0.5726561913177763
1461.755 0.5609861913177763
1462.02 0.5509861913177765
1462.2849999999999 0.5959861913177764
1462.55 0.5809861913177763
1462.815 0.5876511913177762
1463.085 0.5676511913177762
1463.345 0.5959861913177764
1463.615 0.5693211913177765
1463.88 0.5476511913177762
1464.145 0.6093211913177765
1464.415 0.5609861913177763
1464.68 0.5859861913177762
1464.94 0.6076511913177762
1465.21 0.6209861913177763
1465.475 0.5926561913177764
1465.745 0.6109861913177765
1466.005 0.6009861913177763
1466.27 0.5993211913177763
1466.54 0.5993211913177763
1466.8049999999998 0.5843161913177763
1467.07 0.5776511913177764
1467.335 0.6009861913177759
1467.6 0.6326511913177761
1467.8649999999998 0.5659861913177766
1468.1350000000002 0.5776511913177764
1468.395 0.6109861913177765
1468.66 0.6293211913177761
1468.93 0.5626511913177759
1469.1950000000002 0.5809861913177763
1469.46 0.579316191317776
1469.725 0.6026511913177763
1469.99 0.6076511913177762
1470.255 0.6009861913177763
1470.52 0.6076511913177762
1470.7849999999999 0.5476511913177766
1471.05 0.5893161913177762
1471.32 0.6359861913177765
1471.58 0.595986191317776
1471.85 0.5859861913177762
1472.115 0.5843211913177766
1472.38 0.6126561913177764
1472.645 0.5959861913177764
1472.9099999999999 0.5843161913177763
1473.1750000000002 0.5443161913177763
1473.4450000000002 0.6109861913177761
1473.705 0.5459861913177761
1473.97 0.6093211913177761
1474.2350000000001 0.5943211913177764
1474.505 0.5843211913177762
1474.7649999999999 0.595986191317776
1475.03 0.569321191317776
1475.3 0.6193211913177763
1475.565 0.5609861913177763
1475.83 0.5976511913177764
1476.095 0.6326511913177761
1476.225 0.6176511913177765
1476.49 0.599316191317776
1476.76 0.6393211913177763
1477.02 0.5826511913177763
1477.2849999999999 0.6009861913177763
1477.5549999999998 0.599316191317776
1477.815 0.5959861913177764
1478.08 0.637651191317776
1478.345 0.597651191317776
1478.615 0.6043211913177766
1478.875 0.597651191317776
1479.1399999999999 0.5959861913177764
1479.4099999999999 0.6326561913177764
1479.6750000000002 0.5859861913177766
1479.935 0.5926511913177761
1480.205 0.5909861913177761
1480.47 0.6076561913177765
1480.73 0.6093211913177765
1480.995 0.6176511913177765
1481.2649999999999 0.615986191317776
1481.525 0.5776561913177762
1481.79 0.5976561913177763
1482.06 0.6093211913177761
1482.3249999999998 0.6309861913177761
1482.585 0.5993211913177763
1482.85 0.597651191317776
1483.12 0.5876511913177762
1483.38 0.6159861913177764
1483.645 0.6043161913177764
1483.915 0.637651191317776
1484.1750000000002 0.6009861913177763
1484.44 0.6259861913177762
1484.705 0.5826561913177761
1484.97 0.5993211913177763
1485.2350000000001 0.6343211913177764
1485.5 0.5926561913177764
1485.7649999999999 0.5843161913177763
1486.03 0.6409861913177763
1486.295 0.5976511913177764
1486.56 0.5743161913177761
1486.8249999999998 0.589321191317776
1487.09 0.6326511913177761
1487.355 0.6476511913177763
1487.615 0.5943211913177759
1487.885 0.6343161913177762
1488.15 0.6093161913177758
1488.41 0.6476511913177763
1488.6750000000002 0.5476511913177762
1488.9450000000002 0.6176561913177763
1489.205 0.6443211913177762
1489.47 0.6159861913177764
1489.7350000000001 0.6109861913177765
1489.995 0.5959861913177764
1490.2649999999999 0.6493211913177761
1490.53 0.6059861913177762
1490.79 0.6259861913177762
1491.06 0.6026561913177761
1491.325 0.6043211913177766
1491.585 0.6376561913177763
1491.85 0.6426511913177764
1492.115 0.6143211913177764
1492.38 0.6226561913177766
1492.645 0.6309861913177761
1492.775 0.637651191317776
1493.04 0.6409861913177763
1493.3049999999998 0.655986191317776
1493.5700000000002 0.617651191317776
1493.83 0.6109861913177761
1494.095 0.6643161913177764
1494.3600000000001 0.6009861913177763
1494.625 0.6326561913177764
1494.8899999999999 0.6326511913177761
1495.155 0.6326511913177761
1495.415 0.6526561913177764
1495.685 0.6659861913177763
1495.95 0.6593211913177763
1496.21 0.6676511913177763
1496.475 0.6776511913177761
1496.74 0.6593161913177761
1497.005 0.637651191317776
1497.27 0.6043211913177766
1497.53 0.6293161913177763
1497.795 0.6626511913177764
1498.06 0.6426561913177762
1498.3249999999998 0.657651191317776
1498.59 0.575986191317776
1498.855 0.6276511913177762
1499.115 0.6593211913177759
1499.38 0.634321191317776
1499.645 0.6426561913177762
1499.91 0.6459861913177767
1500.17 0.6609861913177764
1500.435 0.6626511913177764
1500.7 0.6826511913177764
1500.9650000000001 0.6726511913177762
1501.23 0.6409861913177763
1501.495 0.6376561913177763
1501.755 0.6826511913177764
1502.02 0.657651191317776
1502.2849999999999 0.6893211913177766
1502.55 0.6259861913177762
1502.815 0.6659861913177763
1503.0749999999998 0.6693211913177761
1503.34 0.6809861913177764
1503.6 0.6476561913177761
1503.87 0.6793211913177764
1504.135 0.6693161913177759
1504.395 0.7376511913177766
1504.66 0.7043211913177763
1504.92 0.6393211913177763
1505.19 0.6443211913177762
1505.455 0.6876511913177763
1505.7150000000001 0.7059861913177763
1505.98 0.7093161913177763
1506.24 0.7026511913177764
1506.505 0.7009861913177764
1506.7649999999999 0.7109861913177762
1507.0349999999999 0.6776561913177763
1507.3 0.702651191317776
1507.56 0.700986191317776
1507.825 0.6693161913177763
1508.085 0.6776511913177761
1508.35 0.7059861913177763
1508.615 0.6859861913177763
1508.88 0.7109861913177762
1509.145 0.672656191317776
1509.275 0.6993211913177759
1509.5349999999999 0.7409861913177764
1509.8 0.6809861913177764
1510.06 0.7276561913177766
1510.33 0.6909861913177762
1510.5900000000001 0.6943161913177762
1510.855 0.7126561913177765
1511.12 0.6609861913177764
1511.38 0.7376511913177761
1511.645 0.7009861913177764
1511.905 0.7043211913177763
1512.1750000000002 0.6959861913177765
1512.435 0.6976561913177763
1512.7 0.724316191317776
1512.96 0.7176561913177764
1513.225 0.712656191317776
1513.49 0.6809861913177759
1513.75 0.7359861913177761
1514.0149999999999 0.7293211913177762
1514.275 0.7376511913177766
1514.545 0.724316191317776
1514.8049999999998 0.7343211913177761
1515.07 0.7009861913177764
1515.33 0.7093161913177763
1515.5949999999998 0.7626561913177763
1515.86 0.7293211913177762
1516.12 0.7059861913177763
1516.3850000000002 0.7076511913177763
1516.65 0.7276511913177763
1516.915 0.7243211913177763
1517.1750000000002 0.7376511913177761
1517.44 0.7543211913177765
1517.7 0.7359861913177765
1517.9650000000001 0.7343161913177763
1518.225 0.7576561913177764
1518.49 0.7676511913177759
1518.75 0.7176561913177764
1519.02 0.7459861913177763
1519.28 0.7259861913177763
1519.545 0.7726511913177763
1519.8049999999998 0.7643211913177763
1520.07 0.7393161913177762
1520.33 0.7576511913177761
1520.5949999999998 0.7159861913177765
1520.855 0.7276511913177763
1521.12 0.7426511913177765
1521.38 0.7476511913177759
1521.645 0.7843211913177763
1521.905 0.7576561913177764
1522.1750000000002 0.7493211913177766
1522.435 0.762651191317776
1522.7 0.7659861913177759
1522.9650000000001 0.7259861913177763
1523.225 0.7693211913177762
1523.49 0.7476561913177766
1523.75 0.7759861913177761
1524.0149999999999 0.7476511913177764
1524.275 0.7826561913177763
1524.54 0.782651191317776
1524.8 0.7809861913177765
1525.065 0.800986191317776
1525.33 0.7693211913177762
1525.595 0.7526511913177762
1525.725 0.7493211913177762
1525.9850000000001 0.7626561913177763
1526.245 0.7726511913177763
1526.51 0.7709861913177762
1526.77 0.7859861913177764
1527.0349999999999 0.7993161913177762
1527.295 0.800986191317776
1527.56 0.7676511913177764
1527.82 0.8259861913177764
1528.085 0.7926511913177763
1528.345 0.8059861913177759
1528.6100000000001 0.7926561913177761
1528.87 0.7509861913177762
1529.135 0.8126511913177763
1529.395 0.8076511913177764
1529.66 0.8076511913177764
1529.92 0.819321191317776
1530.18 0.7693211913177762
1530.4450000000002 0.7959861913177761
1530.71 0.7543211913177765
1530.975 0.8093211913177762
1531.2350000000001 0.8026511913177761
1531.5 0.8126511913177763
1531.76 0.8076561913177762
1532.025 0.8459861913177764
1532.2849999999999 0.8026561913177763
1532.55 0.7859861913177759
1532.81 0.8426511913177761
1533.0749999999998 0.799321191317776
1533.335 0.8076561913177762
1533.5949999999998 0.7593211913177764
1533.86 0.8359861913177762
1534.12 0.7493211913177766
1534.3850000000002 0.8193211913177765
1534.645 0.8143161913177763
1534.91 0.7843211913177763
1535.17 0.7909861913177763
1535.435 0.8226561913177763
1535.6950000000002 0.800986191317776
1535.96 0.7843211913177763
1536.22 0.8309861913177763
1536.48 0.827651191317776
1536.745 0.8459861913177764
1537.005 0.8309861913177763
1537.27 0.8409861913177761
1537.53 0.8509861913177763
1537.79 0.7959861913177761
1538.0549999999998 0.8759861913177762
1538.315 0.8309861913177763
1538.58 0.800986191317776
1538.8400000000001 0.7976511913177762
1539.105 0.8609861913177761
1539.365 0.8409861913177761
1539.63 0.7726511913177763
1539.8899999999999 0.8376561913177765
1540.15 0.8193211913177765
1540.415 0.8243161913177761
1540.675 0.8243211913177764
1540.94 0.8409861913177761
1541.2 0.8326511913177763
1541.46 0.8209861913177765
1541.725 0.7559861913177761
1541.9850000000001 0.8743211913177762
1542.115 0.8443211913177759
1542.38 0.8359861913177762
1542.6399999999999 0.8559861913177762
1542.905 0.8326511913177763
1543.165 0.864321191317776
1543.425 0.8643211913177764
1543.69 0.8359861913177762
1543.95 0.8309861913177763
1544.21 0.8209861913177765
1544.475 0.8243161913177761
1544.7350000000001 0.8459861913177764
1545.0 0.8709861913177763
1545.26 0.8443211913177759
1545.52 0.8443211913177764
1545.7849999999999 0.8243211913177759
1546.045 0.9093211913177763
1546.3049999999998 0.8893161913177765
1546.565 0.8626511913177761
1546.8249999999998 0.867651191317776
1547.09 0.8843161913177762
1547.35 0.9509861913177764
1547.615 0.8243211913177759
1547.875 0.8726511913177764
1548.135 0.8943161913177764
1548.4 0.8376511913177762
1548.66 0.8343211913177762
1548.92 0.9159861913177763
1549.185 0.9009861913177761
1549.4450000000002 0.8759861913177762
1549.71 0.8809861913177761
1549.97 0.847651191317776
1550.23 0.9193211913177761
1550.495 0.9609861913177762
1550.755 0.882656191317776
1551.0149999999999 0.9509861913177764
1551.275 0.9026511913177766
1551.5349999999999 0.8043211913177764
1551.795 0.9226511913177762
1552.06 0.9176511913177763
1552.32 0.8793161913177763
1552.585 0.925986191317776
1552.8449999999998 0.8976511913177763
1553.105 0.8526511913177763
1553.37 0.9226561913177764
1553.63 0.9009861913177761
1553.8899999999999 0.9109861913177764
1554.155 0.9276561913177763
1554.415 0.907651191317776
1554.6750000000002 0.9243161913177762
1554.935 0.9126511913177764
1555.1950000000002 0.9326561913177762
1555.455 0.8809861913177766
1555.72 0.8909861913177763
1555.98 0.9459861913177761
1556.24 0.9476511913177765
1556.505 0.9159861913177763
1556.7649999999999 0.9509861913177764
1557.025 0.9026511913177762
1557.29 0.972651191317776
1557.55 0.8726511913177764
1557.675 0.8793161913177763
1557.94 0.9326561913177762
1558.2 0.9609861913177762
1558.46 0.9093211913177763
1558.72 0.9359861913177763
1558.9850000000001 0.925986191317776
1559.245 0.944321191317776
1559.505 0.8993161913177763
1559.77 0.9426511913177762
1560.03 0.9109861913177764
1560.2849999999999 0.9659861913177761
1560.55 0.9476511913177765
1560.81 0.8893211913177763
1561.07 0.9376561913177761
1561.335 0.9409861913177762
1561.595 0.9759861913177763
1561.855 0.9043161913177762
1562.12 0.9693211913177759
1562.38 0.950986191317776
1562.635 0.9926561913177763
1562.895 0.944321191317776
1563.16 0.9876511913177766
1563.42 0.9609861913177762
1563.685 0.9359861913177763
1563.9450000000002 0.9809861913177762
1564.205 0.9293211913177764
1564.4650000000001 0.9693211913177759
1564.725 0.9926511913177765
1564.9850000000001 0.9809861913177762
1565.245 0.9943211913177763
1565.505 0.9576561913177761
1565.77 0.8893211913177763
1566.03 0.9309861913177764
1566.29 0.9109861913177759
1566.5549999999998 1.014316191317776
1566.81 0.9459861913177765
1567.07 0.9459861913177761
1567.335 0.9859861913177761
1567.5949999999998 0.974316191317776
1567.855 0.9826511913177762
1568.115 1.032651191317776
1568.38 0.9526561913177762
1568.635 0.9676511913177765
1568.895 0.9909861913177764
1569.1550000000002 0.9826511913177762
1569.42 0.9809861913177762
1569.68 0.9959861913177763
1569.94 0.9976511913177764
1570.2 0.9409861913177762
1570.46 0.9259861913177765
1570.72 0.9509861913177764
1570.9850000000001 0.9526561913177762
1571.03 1.0029935413877222
1571.29 1.092993541387722
1571.55 1.0863235413877224
1571.81 1.0629935413877227
1572.08 1.0863235413877224
1572.34 1.056323541387722
1572.6 1.0863235413877224
1572.86 1.1729935413877222
1573.13 1.1296535413877224
1573.39 1.149653541387722
1573.65 1.1596535413877227
1573.91 1.0896535413877224
1574.18 1.0896535413877224
1574.44 1.0729935413877225
1574.7 1.0629935413877227
1574.96 1.0896535413877224
1575.23 1.092993541387722
1575.49 1.109653541387722
1575.75 1.0363235413877225
1576.01 1.1196535413877227
1576.28 1.0396535413877226
1576.54 1.1329935413877221
1576.8 1.069653541387722
1577.06 1.0329935413877225
1577.33 0.9929935413877226
1577.59 1.1229935413877223
1577.85 1.092993541387722
1578.11 0.9996535413877227
1578.37 1.0963235413877221
1578.64 1.0829935413877223
1578.9 1.1063235413877228
1579.16 1.012993541387722
1579.42 1.016323541387722
1579.69 0.9929935413877226
1579.95 1.0763235413877226
1580.21 1.0996535413877222
1580.47 1.0496535413877224
1580.73 1.092993541387722
1581.0 1.052993541387722
1581.26 1.0863235413877224
1581.52 1.1363235413877222
1581.78 1.0729935413877225
1582.05 1.052993541387722
1582.31 1.0429935413877223
1582.57 1.1063235413877228
1582.83 1.149653541387722
1583.09 1.1063235413877228
1583.36 1.1329935413877221
1583.62 1.1829935413877228
1583.88 1.1263235413877224
1584.14 1.0763235413877226
1584.4 1.1163235413877226
1584.67 1.0996535413877222
1584.93 1.1663235413877224
1585.19 1.1196535413877227
1585.45 1.1263235413877224
1585.71 1.1696535413877225
1585.98 1.1129935413877226
1586.24 1.1563235413877226
1586.5 1.109653541387722
1586.76 1.1696535413877225
1587.02 1.0863235413877224
1587.28 1.1363235413877222
1587.55 1.1763235413877222
1587.81 1.1163235413877226
1588.07 1.109653541387722
1588.33 1.149653541387722
1588.59 1.109653541387722
1588.86 1.1329935413877221
1589.12 1.1063235413877228
1589.38 1.149653541387722
1589.64 1.1229935413877223
1589.9 1.1196535413877227
1590.17 1.1263235413877224
1590.43 1.1396535413877222
1590.69 1.0896535413877224
1590.95 1.0896535413877224
1591.21 1.1329935413877221
1591.47 1.1563235413877226
1591.74 1.0863235413877224
1592.0 1.0596535413877222
1592.26 1.1563235413877226
1592.52 1.1296535413877224
1592.78 1.109653541387722
1593.04 1.186323541387722
1593.31 1.0729935413877225
1593.57 1.1696535413877225
1593.83 1.0363235413877225
1594.09 1.1029935413877228
1594.35 1.1396535413877222
1594.61 1.109653541387722
1594.87 1.0963235413877221
1595.14 1.1063235413877228
1595.4 1.0763235413877226
1595.66 1.1763235413877222
1595.92 1.092993541387722
1596.18 1.0896535413877224
1596.44 1.1663235413877224
1596.7 1.0729935413877225
1596.97 1.186323541387722
1597.23 1.0729935413877225
1597.49 1.1031326877807741
1597.75 1.102806652514797
1598.01 1.1043136790202714
1598.27 1.1004882276696808
1598.53 1.1012575776256188
1598.8 1.1014339135479974
1599.06 1.1025354814289887
1599.32 1.1043228205551578
1599.58 1.1023372944289056
1599.84 1.1004952634065912
1600.1 1.1012500657559272
1600.36 1.1030291974989925
1600.62 1.101142550786828
1600.89 1.1025020762944422
1601.15 1.102503764752142
1601.41 1.1004251588014995
1601.67 1.1051272407042463
1601.93 1.1041101548737409
1602.19 1.1009354863253646
1602.45 1.0980679132723452
1602.71 1.0596535413877222
1602.98 1.1429935413877228
1603.24 1.109653541387722
1603.5 1.1196535413877227
1603.76 1.0629935413877227
1604.02 1.0896535413877224
1604.28 1.1163235413877226
1604.54 1.0463235413877223
1604.8 1.1729935413877222
1605.06 1.0896535413877224
1605.32 1.1529935413877226
1605.59 1.069653541387722
1605.85 1.0863235413877224
1606.11 1.0963235413877221
1606.37 1.1063235413877228
1606.63 1.0829935413877223
1606.89 1.0429935413877223
1607.15 1.0729935413877225
1607.41 1.0296535413877228
1607.67 1.0863235413877224
1607.93 1.1529935413877226
1608.19 1.0796535413877226
1608.46 1.016323541387722
1608.72 1.1296535413877224
1608.98 1.109653541387722
1609.24 1.0296535413877228
1609.5 1.0196535413877221
1609.76 1.0996535413877222
1610.02 1.0663235413877228
1610.28 1.0996535413877222
1610.54 1.052993541387722
1610.8 1.056323541387722
1611.06 1.0896535413877224
1611.32 1.1329935413877221
1611.58 1.0896535413877224
1611.84 1.0663235413877228
1612.11 1.0863235413877224
1612.37 1.069653541387722
1612.63 1.0263235413877227
1612.89 1.1263235413877224
1613.15 1.1129935413877226
1613.41 1.069653541387722
1613.67 1.0496535413877224
1613.93 1.109653541387722
1614.19 1.0296535413877228
1614.45 1.0429935413877223
1614.71 1.1029935413877228
1614.97 1.0863235413877224
1615.23 1.0296535413877228
1615.49 1.0729935413877225
1615.75 1.012993541387722
1616.01 0.9863235413877228
1616.27 1.0029935413877222
1616.54 1.0296535413877228
1616.8 1.0896535413877224
1617.06 1.016323541387722
1617.32 1.1263235413877224
1617.58 1.0629935413877227
1617.84 1.056323541387722
1618.1 1.109653541387722
1618.36 1.0329935413877225
1618.62 1.0229935413877227
1618.88 1.0229935413877227
1619.14 1.0296535413877228
1619.4 1.0329935413877225
1619.66 0.9996535413877227
1619.92 1.0629935413877227
1620.18 1.0363235413877225
1620.44 1.0029935413877222
1620.7 0.9929935413877226
1620.96 0.9463235413877228
1621.22 1.0396535413877226
1621.48 0.9963235413877226
1621.74 1.052993541387722
1622.0 1.0229935413877227
1622.26 0.9463235413877228
1622.52 1.0296535413877228
1622.78 0.932993541387723
1623.04 1.0763235413877226
1623.3 0.9129935413877225
1623.56 0.9996535413877227
1623.82 0.9196535413877226
1624.08 0.9463235413877228
1624.34 0.9496535413877228
1624.6 0.9129935413877225
1624.86 0.9229935413877223
1625.12 0.9496535413877228
1625.38 1.0663235413877228
1625.64 1.0029935413877222
1625.9 0.9063235413877228
1626.16 0.8929935413877229
1626.42 0.9896535413877229
1626.68 0.9529935413877225
1626.94 0.9529935413877225
1627.2 0.8396535413877225
1627.46 0.9296535413877224
1627.72 0.9863235413877228
1627.98 1.012993541387722
1628.24 0.9596535413877226
1628.5 0.9129935413877225
1628.76 0.9396535413877222
1629.02 0.8929935413877229
1629.28 0.8996535413877221
1629.54 0.9363235413877221
1629.8 0.9463235413877228
1630.06 0.9529935413877225
1630.32 0.9496535413877228
1630.58 0.9729935413877221
1630.84 0.8863235413877223
1631.1 0.8896535413877223
1631.36 0.9363235413877221
1631.62 0.8963235413877221
1631.88 0.8929935413877229
1632.14 0.8929935413877229
1632.4 0.9029935413877227
1632.66 0.8729935413877224
1632.92 0.8796535413877226
1633.18 0.8796535413877226
1633.44 0.8829935413877222
1633.7 0.9896535413877229
1633.96 0.8796535413877226
1634.22 0.8863235413877223
1634.47 0.8963235413877221
1634.74 0.8263235413877227
1634.99 0.8429935413877222
1635.25 0.9363235413877221
1635.51 0.932993541387723
1635.77 0.8463235413877223
1636.03 0.8863235413877223
1636.29 0.9063235413877228
1636.55 0.9029935413877227
1636.81 0.8896535413877223
1637.07 0.8663235413877227
1637.33 0.8829935413877222
1637.59 0.8763235413877225
1637.85 0.7996535413877225
1638.11 0.8429935413877222
1638.37 0.8596535413877221
1638.63 0.7729935413877228
1638.89 0.8596535413877221
1639.15 0.8329935413877224
1639.4 0.8263235413877227
1639.66 0.8263235413877227
1639.92 0.8729935413877224
1640.18 0.8363235413877225
1640.44 0.8063235413877222
1640.7 0.7163235413877224
1640.96 0.8929935413877229
1641.22 0.8729935413877224
1641.48 0.8729935413877224
1641.74 0.7663235413877222
1642.0 0.8063235413877222
1642.26 0.7829935413877226
1642.52 0.7796535413877229
1642.78 0.8296535413877227
1643.03 0.7896535413877227
1643.29 0.8696535413877228
1643.55 0.7363235413877228
1643.81 0.8296535413877227
1644.07 0.8063235413877222
1644.33 0.7729935413877228
1644.59 0.7263235413877221
1644.85 0.8229935413877226
1645.11 0.8196535413877221
1645.37 0.7696535413877222
1645.62 0.7529935413877223
1645.88 0.8263235413877227
1646.14 0.7929935413877224
1646.4 0.7596535413877225
1646.66 0.7929935413877224
1646.92 0.7929935413877224
1647.18 0.6896535413877222
1647.44 0.6996535413877228
1647.7 0.7963235413877224
1647.96 0.6329935413877222
1648.21 0.7496535413877227
1648.47 0.6896535413877222
1648.73 0.7529935413877223
1648.99 0.7729935413877228
1649.25 0.7796535413877229
1649.51 0.7696535413877222
1649.77 0.7563235413877224
1650.03 0.7429935413877226
1650.28 0.7629935413877221
1650.54 0.7063235413877226
1650.8 0.7163235413877224
1651.06 0.7129935413877223
1651.32 0.7596535413877225
1651.58 0.6763235413877223
1651.84 0.7629935413877221
1652.1 0.7563235413877224
1652.36 0.7529935413877223
1652.61 0.7429935413877226
1652.87 0.7396535413877229
1653.13 0.6863235413877221
1653.39 0.6363235413877223
1653.65 0.7696535413877222
1653.91 0.6963235413877228
1654.17 0.7729935413877228
1654.42 0.8129935413877228
1654.68 0.7163235413877224
1654.94 0.6896535413877222
1655.2 0.7196535413877224
1655.46 0.7129935413877223
1655.72 0.6963235413877228
1655.97 0.7029935413877225
1656.23 0.6429935413877229
1656.49 0.6496535413877221
1656.75 0.6563235413877228
1657.01 0.6796535413877224
1657.27 0.6596535413877228
1657.53 0.6496535413877221
1657.78 0.6663235413877225
1658.04 0.6463235413877221
1658.3 0.7329935413877228
1658.56 0.6796535413877224
1658.82 0.7096535413877226
1659.08 0.6563235413877228
1659.33 0.6596535413877228
1659.59 0.6896535413877222
1659.85 0.6096535413877221
1660.11 0.7196535413877224
1660.37 0.7196535413877224
1660.63 0.6463235413877221
1660.89 0.6763235413877223
1661.14 0.6696535413877226
1661.4 0.5629935413877228
1661.66 0.6629935413877225
1661.92 0.6463235413877221
1662.18 0.6496535413877221
1662.43 0.6763235413877223
1662.69 0.6663235413877225
1662.95 0.6596535413877228
1663.21 0.6729935413877223
1663.47 0.6263235413877225
1663.73 0.6496535413877221
1663.98 0.6329935413877222
1664.24 0.6529935413877227
1664.5 0.6763235413877223
1664.76 0.6629935413877225
1665.02 0.6296535413877226
1665.27 0.5763235413877227
1665.53 0.6196535413877228
1665.79 0.5729935413877226
1666.05 0.6463235413877221
1666.31 0.6763235413877223
1666.56 0.5863235413877225
1666.82 0.6529935413877227
1667.08 0.6363235413877223
1667.34 0.6163235413877227
1667.59 0.6963235413877228
1667.85 0.6296535413877226
1668.11 0.6229935413877224
1668.37 0.6429935413877229
1668.63 0.5663235413877229
1668.88 0.5563235413877222
1669.14 0.6029935413877229
1669.4 0.6263235413877225
1669.66 0.5929935413877222
1669.92 0.6229935413877224
1670.17 0.6096535413877221
1670.43 0.682993541387723
1670.69 0.5929935413877222
1670.95 0.5563235413877222
1671.2 0.6296535413877226
1671.46 0.5463235413877224
1671.72 0.5696535413877221
1671.98 0.6029935413877229
1672.24 0.6263235413877225
1672.49 0.5696535413877221
1672.75 0.6229935413877224
1673.01 0.5463235413877224
1673.27 0.6429935413877229
1673.52 0.5496535413877225
1673.78 0.5663235413877229
1674.04 0.6329935413877222
1674.3 0.5829935413877224
1674.55 0.5463235413877224
1674.81 0.5896535413877225
1675.07 0.5463235413877224
1675.33 0.5996535413877223
1675.59 0.6129935413877227
1675.84 0.6396535413877223
1676.1 0.5463235413877224
1676.36 0.6096535413877221
1676.62 0.5896535413877225
1676.87 0.5429935413877224
1677.13 0.5996535413877223
1677.39 0.5296535413877229
1677.64 0.5763235413877227
1677.9 0.6263235413877225
1678.16 0.5163235413877222
1678.42 0.5963235413877223
1678.67 0.6029935413877229
1678.93 0.5229935413877228
1679.19 0.5063235413877224
1679.45 0.5529935413877222
1679.7 0.5129935413877221
1679.96 0.5363235413877226
1680.22 0.5363235413877226
1680.48 0.5296535413877229
1680.73 0.5563235413877222
1680.99 0.5329935413877226
1681.25 0.5363235413877226
1681.51 0.6329935413877222
1681.76 0.5763235413877227
1682.02 0.5763235413877227
1682.28 0.5363235413877226
1682.53 0.5329935413877226
1682.79 0.5663235413877229
1683.05 0.5929935413877222
1683.31 0.5496535413877225
1683.56 0.46632354138772236
1683.82 0.5896535413877225
1684.08 0.5663235413877229
1684.33 0.5396535413877227
1684.59 0.5863235413877225
1684.85 0.5696535413877221
1685.11 0.5396535413877227
1685.36 0.5429935413877224
1685.62 0.5129935413877221
1685.88 0.5829935413877224
1686.13 0.5129935413877221
1686.39 0.5563235413877222
1686.65 0.5263235413877229
1686.91 0.5363235413877226
1687.16 0.5696535413877221
1687.42 0.5663235413877229
1687.68 0.4863235413877228
1687.93 0.5896535413877225
1688.19 0.5163235413877222
1688.45 0.5629935413877228
1688.7 0.5763235413877227
1688.96 0.6063235413877229
1689.22 0.5629935413877228
1689.47 0.5229935413877228
1689.73 0.49299354138772256
1689.99 0.5663235413877229
1690.24 0.5629935413877228
1690.5 0.4529935413877225
1690.76 0.5463235413877224
1691.01 0.5029935413877223
1691.27 0.5196535413877222
1691.53 0.5629935413877228
1691.79 0.5096535413877225
1692.04 0.5363235413877226
1692.3 0.5796535413877227
1692.56 0.5496535413877225
1692.81 0.5096535413877225
1693.07 0.5029935413877223
1693.32 0.5863235413877225
1693.58 0.5529935413877222
1693.84 0.4796535413877222
1694.1 0.5263235413877229
1694.35 0.4963235413877226
1694.61 0.5429935413877224
1694.87 0.5796535413877227
1695.12 0.5296535413877229
1695.38 0.4729935413877221
1695.64 0.5329935413877226
1695.89 0.6263235413877225
1696.15 0.4896535413877229
1696.4 0.5096535413877225
1696.66 0.5396535413877227
1696.92 0.5563235413877222
1697.17 0.5329935413877226
1697.43 0.6063235413877229
1697.69 0.5929935413877222
1697.94 0.5763235413877227
1698.2 0.5496535413877225
1698.46 0.5863235413877225
1698.71 0.5729935413877226
1698.97 0.5463235413877224
1699.23 0.5196535413877222
1699.48 0.5563235413877222
1699.74 0.5863235413877225
1699.99 0.5429935413877224
1700.25 0.5696535413877221
1700.51 0.49965354138772267
1700.76 0.6196535413877228
1701.02 0.5596535413877223
1701.28 0.5063235413877224
1701.53 0.5429935413877224
1701.79 0.5796535413877227
1702.04 0.4896535413877229
1702.3 0.5229935413877228
1702.56 0.4863235413877228
1702.81 0.49299354138772256
1703.07 0.5163235413877222
1703.33 0.5496535413877225
1703.58 0.5829935413877224
1703.84 0.5563235413877222
1704.1 0.5663235413877229
1704.35 0.5763235413877227
1704.61 0.5563235413877222
1704.86 0.5863235413877225
1705.12 0.5663235413877229
1705.38 0.5229935413877228
1705.63 0.5229935413877228
1705.89 0.5463235413877224
1706.14 0.49965354138772267
1706.4 0.5996535413877223
1706.66 0.4963235413877226
1706.91 0.5563235413877222
1707.17 0.5063235413877224
1707.42 0.5429935413877224
1707.68 0.5329935413877226
1707.94 0.5763235413877227
1708.19 0.5396535413877227
1708.45 0.6363235413877223
1708.7 0.5263235413877229
1708.96 0.5763235413877227
1709.22 0.5263235413877229
1709.47 0.5429935413877224
1709.73 0.5229935413877228
1709.98 0.5596535413877223
1710.24 0.48299354138772277
1710.49 0.5529935413877222
1710.75 0.4629935413877223
1711.01 0.5163235413877222
1711.26 0.5429935413877224
1711.52 0.5196535413877222
1711.77 0.5529935413877222
1712.03 0.49965354138772267
1712.29 0.5429935413877224
1712.54 0.5363235413877226
1712.8 0.5796535413877227
1713.05 0.5396535413877227
1713.31 0.5129935413877221
1713.56 0.5496535413877225
1713.82 0.5329935413877226
1714.07 0.43965354138772217
1714.33 0.4896535413877229
1714.59 0.5596535413877223
1714.84 0.4629935413877223
1715.1 0.6063235413877229
1715.35 0.5063235413877224
1715.61 0.5929935413877222
1715.86 0.5329935413877226
1716.12 0.5896535413877225
1716.37 0.5496535413877225
1716.63 0.5963235413877223
1716.89 0.49965354138772267
1717.14 0.5296535413877229
1717.4 0.5096535413877225
1717.65 0.5263235413877229
1717.91 0.5263235413877229
1718.16 0.48299354138772277
1718.42 0.4963235413877226
1718.67 0.5296535413877229
1718.93 0.48299354138772277
1719.18 0.49965354138772267
1719.44 0.5229935413877228
1719.7 0.5496535413877225
1719.95 0.5029935413877223
1720.21 0.5563235413877222
1720.46 0.5263235413877229
1720.72 0.5863235413877225
1720.97 0.5596535413877223
1721.23 0.5296535413877229
1721.48 0.5163235413877222
1721.74 0.5263235413877229
1721.99 0.49965354138772267
1722.25 0.4963235413877226
1722.5 0.5229935413877228
1722.76 0.5329935413877226
1723.01 0.6163235413877227
1723.27 0.5396535413877227
1723.52 0.49299354138772256
1723.78 0.5363235413877226
1724.04 0.5429935413877224
1724.29 0.49299354138772256
1724.55 0.5396535413877227
1724.8 0.5496535413877225
1725.05 0.5229935413877228
1725.31 0.6363235413877223
1725.57 0.5929935413877222
1725.82 0.5396535413877227
1726.08 0.5396535413877227
1726.33 0.5596535413877223
1726.59 0.4796535413877222
1726.84 0.5563235413877222
1727.1 0.5463235413877224
1727.35 0.5029935413877223
1727.61 0.5396535413877227
1727.86 0.4963235413877226
1728.12 0.5463235413877224
1728.37 0.5296535413877229
1728.63 0.5196535413877222
1728.88 0.49965354138772267
1729.14 0.5296535413877229
1729.39 0.5763235413877227
1729.64 0.5696535413877221
1729.9 0.5396535413877227
1730.16 0.5263235413877229
1730.41 0.5063235413877224
1730.67 0.5463235413877224
1730.92 0.5129935413877221
1731.17 0.4863235413877228
1731.43 0.5129935413877221
1731.68 0.4563235413877226
1731.94 0.5096535413877225
1732.19 0.5596535413877223
1732.45 0.5896535413877225
1732.7 0.5196535413877222
1732.96 0.47632354138772215
1733.21 0.4563235413877226
1733.47 0.5629935413877228
1733.72 0.5429935413877224
1733.98 0.5129935413877221
1734.23 0.5163235413877222
1734.49 0.5029935413877223
1734.74 0.5063235413877224
1734.99 0.5063235413877224
1735.25 0.4563235413877226
1735.5 0.5563235413877222
1735.76 0.49299354138772256
1736.01 0.5396535413877227
1736.27 0.5729935413877226
1736.52 0.5096535413877225
1736.78 0.5229935413877228
1737.03 0.5529935413877222
1737.29 0.5029935413877223
1737.54 0.5929935413877222
1737.79 0.5663235413877229
1738.05 0.49965354138772267
1738.3 0.5329935413877226
1738.56 0.45965354138772263
1738.81 0.5029935413877223
1739.07 0.5563235413877222
1739.32 0.5296535413877229
1739.58 0.45965354138772263
1739.83 0.5863235413877225
1740.09 0.5396535413877227
1740.34 0.5463235413877224
1740.59 0.5763235413877227
1740.85 0.5263235413877229
1741.1 0.5129935413877221
1741.36 0.48299354138772277
1741.61 0.5696535413877221
1741.86 0.5063235413877224
1742.12 0.47632354138772215
1742.37 0.4696535413877224
1742.63 0.5663235413877229
1742.88 0.4863235413877228
1743.14 0.5563235413877222
1743.39 0.5096535413877225
1743.65 0.5663235413877229
1743.9 0.49299354138772256
1744.15 0.5229935413877228
1744.41 0.5529935413877222
1744.66 0.5929935413877222
1744.92 0.4796535413877222
1745.17 0.5896535413877225
1745.42 0.5029935413877223
1745.68 0.5063235413877224
1745.93 0.5463235413877224
1746.19 0.5429935413877224
1746.44 0.5363235413877226
1746.69 0.5496535413877225
1746.95 0.4863235413877228
1747.2 0.5563235413877222
1747.46 0.5096535413877225
1747.71 0.5196535413877222
1747.96 0.5163235413877222
1748.22 0.5363235413877226
1748.47 0.49965354138772267
1748.73 0.5529935413877222
1748.98 0.5329935413877226
1749.23 0.5663235413877229
1749.49 0.5863235413877225
1749.74 0.5296535413877229
1750.0 0.6129935413877227
1750.25 0.4729935413877221
1750.5 0.5196535413877222
1750.76 0.4729935413877221
1751.01 0.5396535413877227
1751.27 0.5396535413877227
1751.52 0.5129935413877221
1751.77 0.5763235413877227
1752.03 0.47632354138772215
1752.28 0.5329935413877226
1752.53 0.5563235413877222
1752.79 0.5196535413877222
1753.04 0.49299354138772256
1753.3 0.5529935413877222
1753.55 0.5429935413877224
1753.8 0.4729935413877221
1754.06 0.5363235413877226
1754.31 0.5029935413877223
1754.56 0.5829935413877224
1754.82 0.5029935413877223
1755.07 0.5396535413877227
1755.32 0.5729935413877226
1755.58 0.4529935413877225
1755.83 0.48299354138772277
1756.09 0.5429935413877224
1756.34 0.5229935413877228
1756.59 0.5663235413877229
1756.85 0.5596535413877223
1757.1 0.5629935413877228
1757.35 0.5496535413877225
1757.61 0.5596535413877223
1757.86 0.5863235413877225
1758.11 0.5296535413877229
1758.37 0.5596535413877223
1758.62 0.5763235413877227
1758.87 0.6029935413877229
1759.13 0.4196535413877226
1759.38 0.5363235413877226
1759.63 0.5096535413877225
1759.89 0.5629935413877228
1760.14 0.5929935413877222
1760.39 0.5263235413877229
1760.65 0.5096535413877225
1760.9 0.5429935413877224
1761.15 0.5796535413877227
1761.41 0.5429935413877224
1761.66 0.5529935413877222
1761.91 0.5563235413877222
1762.17 0.5429935413877224
1762.42 0.5096535413877225
1762.67 0.49299354138772256
1762.93 0.5996535413877223
1763.18 0.4796535413877222
1763.43 0.5229935413877228
1763.69 0.5129935413877221
1763.94 0.5563235413877222
1764.19 0.5296535413877229
1764.45 0.5829935413877224
1764.7 0.5163235413877222
1764.95 0.49299354138772256
1765.21 0.5629935413877228
1765.46 0.5329935413877226
1765.71 0.5263235413877229
1765.96 0.5363235413877226
1766.22 0.5296535413877229
1766.47 0.5196535413877222
1766.72 0.4563235413877226
1766.98 0.47632354138772215
1767.23 0.5129935413877221
1767.48 0.5429935413877224
1767.74 0.5063235413877224
1767.99 0.5663235413877229
1768.24 0.5129935413877221
1768.49 0.5296535413877229
1768.75 0.4896535413877229
1769.0 0.4863235413877228
1769.25 0.5563235413877222
1769.51 0.5496535413877225
1769.76 0.4896535413877229
1770.01 0.5429935413877224
1770.27 0.5029935413877223
1770.52 0.5563235413877222
1770.77 0.5463235413877224
1771.03 0.5529935413877222
1771.28 0.5796535413877227
1771.53 0.4629935413877223
1771.78 0.5163235413877222
1772.04 0.5696535413877221
1772.29 0.49299354138772256
1772.54 0.6129935413877227
1772.79 0.6329935413877222
1773.05 0.5129935413877221
1773.3 0.5263235413877229
1773.55 0.5863235413877225
1773.8 0.5063235413877224
1774.06 0.5096535413877225
1774.31 0.5163235413877222
1774.56 0.5296535413877229
1774.82 0.5496535413877225
1775.07 0.5429935413877224
1775.32 0.5129935413877221
1775.57 0.49965354138772267
1775.83 0.5563235413877222
1776.08 0.5263235413877229
1776.33 0.5429935413877224
1776.58 0.5329935413877226
1776.84 0.5129935413877221
1777.09 0.5496535413877225
1777.34 0.5129935413877221
1777.59 0.5329935413877226
1777.85 0.6029935413877229
1778.1 0.5363235413877226
1778.35 0.47632354138772215
1778.6 0.5563235413877222
1778.86 0.5396535413877227
1779.11 0.4463235413877228
1779.36 0.5729935413877226
1779.61 0.5396535413877227
1779.87 0.5863235413877225
1780.12 0.5463235413877224
1780.37 0.4629935413877223
1780.62 0.5396535413877227
1780.88 0.5663235413877229
1781.13 0.6263235413877225
1781.38 0.5263235413877229
1781.63 0.48299354138772277
1781.89 0.5329935413877226
1782.14 0.5296535413877229
1782.39 0.5663235413877229
1782.64 0.5963235413877223
1782.89 0.5129935413877221
1783.15 0.5129935413877221
1783.4 0.5196535413877222
1783.65 0.5196535413877222
1783.9 0.4896535413877229
1784.16 0.5496535413877225
1784.41 0.5429935413877224
1784.66 0.5529935413877222
1784.91 0.5029935413877223
1785.16 0.5663235413877229
1785.41 0.5529935413877222
1785.67 0.5763235413877227
1785.92 0.5896535413877225
1786.17 0.4529935413877225
1786.42 0.5496535413877225
1786.68 0.5796535413877227
1786.93 0.5163235413877222
1787.18 0.5063235413877224
1787.43 0.5329935413877226
1787.68 0.5263235413877229
1787.94 0.5129935413877221
1788.19 0.5296535413877229
1788.44 0.5696535413877221
1788.69 0.46632354138772236
1788.94 0.5163235413877222
1789.2 0.47632354138772215
1789.45 0.5263235413877229
1789.7 0.5663235413877229
1789.95 0.5663235413877229
1790.2 0.5363235413877226
1790.46 0.5563235413877222
1790.71 0.5463235413877224
1790.96 0.5329935413877226
1791.21 0.5129935413877221
1791.46 0.45965354138772263
1791.71 0.5296535413877229
1791.97 0.5429935413877224
1792.22 0.4963235413877226
1792.47 0.5329935413877226
1792.72 0.5329935413877226
1792.97 0.5629935413877228
1793.23 0.5229935413877228
1793.48 0.5729935413877226
1793.73 0.5129935413877221
1793.98 0.5163235413877222
1794.23 0.5363235413877226
1794.48 0.4963235413877226
1794.74 0.49299354138772256
1794.99 0.5863235413877225
1795.24 0.5663235413877229
1795.49 0.5763235413877227
1795.74 0.5329935413877226
1795.99 0.5629935413877228
1796.25 0.5429935413877224
1796.5 0.5863235413877225
1796.75 0.5263235413877229
1797.0 0.5996535413877223
1797.25 0.5629935413877228
1797.5 0.5463235413877224
1797.75 0.5096535413877225
1798.01 0.5829935413877224
1798.26 0.49965354138772267
1798.51 0.5296535413877229
1798.76 0.5529935413877222
1799.01 0.5063235413877224
1799.26 0.5363235413877226
1799.51 0.5163235413877222
1799.77 0.5229935413877228
1800.02 0.49299354138772256
1800.27 0.4963235413877226
1800.52 0.5529935413877222
1800.77 0.6163235413877227
1801.02 0.5463235413877224
1801.27 0.44299354138772273
1801.53 0.5796535413877227
1801.78 0.5329935413877226
1802.03 0.5096535413877225
1802.28 0.47632354138772215
1802.53 0.6163235413877227
1802.78 0.49299354138772256
1803.03 0.6029935413877229
1803.29 0.6196535413877228
1803.54 0.5496535413877225
1803.79 0.5563235413877222
1804.04 0.5763235413877227
1804.29 0.45965354138772263
1804.54 0.5296535413877229
1804.79 0.5829935413877224
1805.04 0.5096535413877225
1805.29 0.5129935413877221
1805.55 0.5496535413877225
1805.8 0.5696535413877221
1806.05 0.5596535413877223
1806.3 0.5629935413877228
1806.55 0.5529935413877222
1806.8 0.6196535413877228
1807.05 0.6196535413877228
1807.3 0.4796535413877222
1807.56 0.5896535413877225
1807.81 0.5529935413877222
1808.06 0.5229935413877228
1808.31 0.5863235413877225
1808.56 0.5796535413877227
1808.81 0.6129935413877227
1809.06 0.5829935413877224
1809.31 0.5529935413877222
1809.56 0.5796535413877227
1809.81 0.5629935413877228
1810.06 0.6029935413877229
1810.32 0.5896535413877225
1810.57 0.5596535413877223
1810.82 0.5963235413877223
1811.07 0.5996535413877223
1811.32 0.5429935413877224
1811.57 0.5496535413877225
1811.82 0.5263235413877229
1812.07 0.5329935413877226
1812.32 0.5563235413877222
1812.57 0.5263235413877229
1812.82 0.5929935413877222
1813.07 0.5996535413877223
1813.32 0.5463235413877224
1813.57 0.4563235413877226
1813.83 0.5996535413877223
1814.08 0.5463235413877224
1814.33 0.4896535413877229
1814.58 0.5596535413877223
1814.83 0.5696535413877221
1815.08 0.5563235413877222
1815.33 0.5563235413877222
1815.58 0.49965354138772267
1815.83 0.5829935413877224
1816.08 0.5463235413877224
1816.33 0.5696535413877221
1816.58 0.46632354138772236
1816.83 0.5463235413877224
1817.08 0.5263235413877229
1817.33 0.6029935413877229
1817.59 0.5996535413877223
1817.84 0.5429935413877224
1818.09 0.5463235413877224
1818.34 0.5563235413877222
1818.59 0.5696535413877221
1818.84 0.5663235413877229
1819.09 0.5863235413877225
1819.34 0.5663235413877229
1819.59 0.5596535413877223
1819.84 0.49965354138772267
1820.09 0.5729935413877226
1820.34 0.5829935413877224
1820.59 0.5696535413877221
1820.84 0.5796535413877227
1821.09 0.5629935413877228
1821.34 0.6096535413877221
1821.59 0.6063235413877229
1821.84 0.5496535413877225
1822.09 0.5929935413877222
1822.34 0.6063235413877229
1822.59 0.5763235413877227
1822.84 0.5929935413877222
1823.09 0.6629935413877225
1823.34 0.5129935413877221
1823.59 0.5663235413877229
1823.84 0.6096535413877221
1824.1 0.6129935413877227
1824.35 0.6229935413877224
1824.6 0.5696535413877221
1824.85 0.4563235413877226
1825.1 0.6096535413877221
1825.35 0.5129935413877221
1825.6 0.5763235413877227
1825.85 0.5963235413877223
1826.1 0.5929935413877222
1826.35 0.5463235413877224
1826.6 0.6129935413877227
1826.85 0.6329935413877222
1827.1 0.5896535413877225
1827.35 0.5363235413877226
1827.6 0.5563235413877222
1827.85 0.6396535413877223
1828.1 0.6196535413877228
1828.35 0.5496535413877225
1828.6 0.6096535413877221
1828.85 0.6029935413877229
1829.1 0.5896535413877225
1829.35 0.5863235413877225
1829.6 0.49299354138772256
1829.85 0.5929935413877222
1830.1 0.6296535413877226
1830.35 0.5829935413877224
1830.6 0.5729935413877226
1830.85 0.6196535413877228
1831.1 0.49965354138772267
1831.35 0.6096535413877221
1831.6 0.6496535413877221
1831.85 0.5629935413877228
1832.1 0.6129935413877227
1832.35 0.5463235413877224
1832.59 0.6363235413877223
1832.84 0.5563235413877222
1833.1 0.5663235413877229
1833.34 0.5863235413877225
1833.59 0.5629935413877228
1833.84 0.5863235413877225
1834.09 0.6096535413877221
1834.34 0.5196535413877222
1834.59 0.6229935413877224
1834.84 0.5263235413877229
1835.09 0.6229935413877224
1835.34 0.4963235413877226
1835.59 0.5629935413877228
1835.84 0.6129935413877227
1836.09 0.5663235413877229
1836.34 0.5829935413877224
1836.59 0.6196535413877228
1836.84 0.6029935413877229
1837.09 0.6129935413877227
1837.34 0.5463235413877224
1837.59 0.5763235413877227
1837.84 0.5763235413877227
1838.09 0.5363235413877226
1838.34 0.5696535413877221
1838.59 0.5863235413877225
1838.84 0.5396535413877227
1839.09 0.6163235413877227
1839.34 0.6063235413877229
1839.58 0.6196535413877228
1839.83 0.5829935413877224
1840.08 0.6263235413877225
1840.33 0.5629935413877228
1840.58 0.6196535413877228
1840.83 0.5563235413877222
1841.08 0.5929935413877222
1841.33 0.5929935413877222
1841.58 0.5629935413877228
1841.83 0.5929935413877222
1842.08 0.5729935413877226
1842.33 0.6163235413877227
1842.58 0.5463235413877224
1842.83 0.6496535413877221
1843.07 0.6063235413877229
1843.32 0.5729935413877226
1843.57 0.6529935413877227
1843.82 0.6463235413877221
1844.07 0.6396535413877223
1844.32 0.5763235413877227
1844.57 0.5796535413877227
1844.82 0.5996535413877223
1845.07 0.6596535413877228
1845.32 0.6129935413877227
1845.57 0.6629935413877225
1845.82 0.5729935413877226
1846.07 0.6096535413877221
1846.31 0.5729935413877226
1846.56 0.5263235413877229
1846.81 0.5163235413877222
1847.06 0.5929935413877222
1847.31 0.5696535413877221
1847.56 0.5963235413877223
1847.81 0.6163235413877227
1848.06 0.5729935413877226
1848.31 0.6163235413877227
1848.56 0.5863235413877225
1848.8 0.5563235413877222
1849.05 0.5829935413877224
1849.3 0.5863235413877225
1849.55 0.5829935413877224
1849.8 0.6129935413877227
1850.05 0.5329935413877226
1850.3 0.6396535413877223
1850.55 0.6263235413877225
1850.8 0.5596535413877223
1851.05 0.6563235413877228
1851.3 0.6063235413877229
1851.54 0.6296535413877226
1851.79 0.5529935413877222
1852.04 0.5963235413877223
1852.29 0.6329935413877222
1852.54 0.5763235413877227
1852.79 0.5463235413877224
1853.04 0.5796535413877227
1853.28 0.6663235413877225
1853.53 0.6496535413877221
1853.78 0.5896535413877225
1854.03 0.5796535413877227
1854.28 0.5429935413877224
1854.53 0.5663235413877229
1854.78 0.6263235413877225
1855.03 0.5929935413877222
1855.27 0.6429935413877229
1855.52 0.6596535413877228
1855.77 0.6529935413877227
1856.02 0.5863235413877225
1856.27 0.5629935413877228
1856.52 0.5863235413877225
1856.77 0.6029935413877229
1857.01 0.5729935413877226
1857.26 0.6229935413877224
1857.51 0.6629935413877225
1857.76 0.5763235413877227
1858.01 0.6196535413877228
1858.26 0.5796535413877227
1858.51 0.6529935413877227
1858.75 0.6696535413877226
1859.0 0.6329935413877222
1859.25 0.5363235413877226
1859.5 0.5263235413877229
1859.75 0.5829935413877224
1860.0 0.5329935413877226
1860.24 0.6363235413877223
1860.49 0.6396535413877223
1860.74 0.6529935413877227
1860.99 0.5629935413877228
1861.24 0.5763235413877227
1861.49 0.5429935413877224
1861.73 0.6263235413877225
1861.98 0.5663235413877229
1862.23 0.5996535413877223
1862.48 0.6596535413877228
1862.73 0.6529935413877227
1862.98 0.6663235413877225
1863.23 0.6363235413877223
1863.47 0.5963235413877223
1863.72 0.6763235413877223
1863.97 0.6096535413877221
1864.22 0.6029935413877229
1864.47 0.6363235413877223
1864.72 0.6196535413877228
1864.96 0.5929935413877222
1865.21 0.5296535413877229
1865.46 0.6796535413877224
1865.71 0.5996535413877223
1865.96 0.6096535413877221
1866.2 0.6196535413877228
1866.45 0.5829935413877224
1866.7 0.6129935413877227
1866.95 0.5563235413877222
1867.2 0.5663235413877229
1867.44 0.6196535413877228
1867.69 0.5863235413877225
1867.94 0.5763235413877227
1868.19 0.5696535413877221
1868.44 0.5696535413877221
1868.68 0.6329935413877222
1868.93 0.6463235413877221
1869.18 0.5963235413877223
1869.43 0.5929935413877222
1869.68 0.6229935413877224
1869.92 0.6129935413877227
1870.17 0.6096535413877221
1870.42 0.6063235413877229
1870.67 0.6296535413877226
1870.92 0.6496535413877221
1871.16 0.682993541387723
1871.41 0.6329935413877222
1871.66 0.6296535413877226
1871.91 0.6129935413877227
1872.15 0.6396535413877223
1872.4 0.6029935413877229
1872.65 0.5996535413877223
1872.9 0.6429935413877229
1873.15 0.6096535413877221
1873.39 0.6896535413877222
1873.64 0.5896535413877225
1873.89 0.5663235413877229
1874.14 0.6396535413877223
1874.38 0.6463235413877221
1874.63 0.5096535413877225
1874.88 0.5896535413877225
1875.13 0.6329935413877222
1875.38 0.6029935413877229
1875.62 0.6296535413877226
1875.87 0.6363235413877223
1876.12 0.5729935413877226
1876.37 0.5529935413877222
1876.61 0.6196535413877228
1876.86 0.7129935413877223
1877.11 0.5763235413877227
1877.36 0.6263235413877225
1877.6 0.6196535413877228
1877.85 0.6729935413877223
1878.1 0.5729935413877226
1878.35 0.6196535413877228
1878.59 0.7129935413877223
1878.84 0.5963235413877223
1879.09 0.5696535413877221
1879.34 0.5896535413877225
1879.58 0.5796535413877227
1879.83 0.6796535413877224
1880.08 0.6163235413877227
1880.33 0.5729935413877226
1880.57 0.6129935413877227
1880.82 0.6596535413877228
1881.07 0.6196535413877228
1881.32 0.6363235413877223
1881.56 0.6563235413877228
1881.81 0.7096535413877226
1882.06 0.6263235413877225
1882.3 0.5763235413877227
1882.55 0.6329935413877222
1882.8 0.6596535413877228
1883.05 0.6096535413877221
1883.29 0.6296535413877226
1883.54 0.6196535413877228
1883.79 0.6163235413877227
1884.04 0.5329935413877226
1884.28 0.6796535413877224
1884.53 0.7029935413877225
1884.78 0.6929935413877227
1885.02 0.6529935413877227
1885.27 0.5063235413877224
1885.52 0.5963235413877223
1885.77 0.6229935413877224
1886.01 0.6229935413877224
1886.26 0.5129935413877221
1886.51 0.6729935413877223
1886.75 0.5863235413877225
1887.0 0.6029935413877229
1887.25 0.6129935413877227
1887.5 0.6463235413877221
1887.74 0.6129935413877227
1887.99 0.6463235413877221
1888.24 0.6529935413877227
1888.48 0.6163235413877227
1888.73 0.6296535413877226
1888.98 0.6496535413877221
1889.23 0.5929935413877222
1889.47 0.6263235413877225
1889.72 0.6896535413877222
1889.97 0.5763235413877227
1890.21 0.6863235413877221
1890.46 0.5596535413877223
1890.71 0.6129935413877227
1890.95 0.6163235413877227
1891.2 0.5796535413877227
1891.45 0.682993541387723
1891.69 0.6396535413877223
1891.94 0.6696535413877226
1892.19 0.6663235413877225
1892.44 0.7063235413877226
1892.68 0.6329935413877222
1892.93 0.6629935413877225
1893.17 0.6196535413877228
1893.42 0.6263235413877225
1893.67 0.6863235413877221
1893.92 0.6729935413877223
1894.16 0.6229935413877224
1894.41 0.6163235413877227
1894.66 0.6629935413877225
1894.9 0.6229935413877224
1895.15 0.6196535413877228
1895.4 0.6329935413877222
1895.64 0.6429935413877229
1895.89 0.6163235413877227
1896.14 0.5529935413877222
1896.38 0.6596535413877228
1896.63 0.6429935413877229
1896.87 0.6063235413877229
1897.12 0.6563235413877228
1897.37 0.6596535413877228
1897.62 0.5863235413877225
1897.86 0.6696535413877226
1898.11 0.6296535413877226
1898.35 0.5929935413877222
1898.6 0.6363235413877223
1898.85 0.6229935413877224
1899.09 0.6429935413877229
1899.34 0.6163235413877227
1899.59 0.6696535413877226
1899.83 0.6563235413877228
1900.08 0.5396535413877227
1900.33 0.6363235413877223
1900.57 0.6396535413877223
1900.82 0.6463235413877221
1901.07 0.6296535413877226
1901.31 0.5596535413877223
1901.56 0.4863235413877228
1901.8 0.5929935413877222
1902.05 0.6463235413877221
1902.3 0.5629935413877228
1902.54 0.6563235413877228
1902.79 0.5729935413877226
1903.04 0.6129935413877227
1903.28 0.5696535413877221
1903.53 0.6029935413877229
1903.78 0.6496535413877221
1904.02 0.6763235413877223
1904.27 0.6296535413877226
1904.51 0.5829935413877224
1904.76 0.6129935413877227
1905.01 0.6296535413877226
1905.25 0.6196535413877228
1905.5 0.5963235413877223
1905.74 0.6129935413877227
1905.99 0.6396535413877223
1906.24 0.6196535413877228
1906.48 0.6463235413877221
1906.73 0.6396535413877223
1906.98 0.6129935413877227
1907.22 0.6529935413877227
1907.47 0.6363235413877223
1907.71 0.6163235413877227
1907.96 0.6229935413877224
1908.21 0.6429935413877229
1908.45 0.6363235413877223
1908.7 0.6696535413877226
1908.94 0.6729935413877223
1909.19 0.6663235413877225
1909.44 0.6796535413877224
1909.68 0.6263235413877225
1909.93 0.6763235413877223
1910.17 0.6029935413877229
1910.42 0.6629935413877225
1910.66 0.6196535413877228
1910.91 0.5929935413877222
1911.16 0.7129935413877223
1911.4 0.6429935413877229
1911.65 0.6329935413877222
1911.9 0.6096535413877221
1912.14 0.6696535413877226
1912.39 0.7029935413877225
1912.63 0.5796535413877227
1912.88 0.6663235413877225
1913.12 0.5729935413877226
1913.37 0.6563235413877228
1913.62 0.6596535413877228
1913.86 0.6663235413877225
1914.11 0.5929935413877222
1914.35 0.6329935413877222
1914.6 0.6496535413877221
1914.84 0.5696535413877221
1915.09 0.6429935413877229
1915.33 0.6329935413877222
1915.58 0.6563235413877228
1915.83 0.6296535413877226
1916.07 0.6329935413877222
1916.32 0.6129935413877227
1916.56 0.5896535413877225
1916.81 0.6963235413877228
1917.05 0.6629935413877225
1917.3 0.5529935413877222
1917.55 0.5729935413877226
1917.79 0.6429935413877229
1918.04 0.6163235413877227
1918.28 0.6196535413877228
1918.53 0.6129935413877227
1918.77 0.6029935413877229
1919.02 0.6729935413877223
1919.26 0.6796535413877224
1919.51 0.6263235413877225
1919.76 0.6363235413877223
1920.0 0.6263235413877225
1920.25 0.6696535413877226
1920.49 0.5563235413877222
1920.74 0.6129935413877227
1920.98 0.6496535413877221
1921.23 0.6496535413877221
1921.47 0.6063235413877229
1921.72 0.6363235413877223
1921.96 0.5796535413877227
1922.21 0.6596535413877228
1922.45 0.6329935413877222
1922.7 0.6296535413877226
1922.94 0.6396535413877223
1923.19 0.6929935413877227
1923.43 0.6329935413877222
1923.68 0.6629935413877225
1923.93 0.6963235413877228
1924.17 0.6029935413877229
1924.42 0.5796535413877227
1924.66 0.6629935413877225
1924.91 0.6896535413877222
1925.15 0.6563235413877228
1925.4 0.6296535413877226
1925.64 0.6329935413877222
1925.89 0.7063235413877226
1926.13 0.6396535413877223
1926.38 0.6663235413877225
1926.62 0.6396535413877223
1926.87 0.6696535413877226
1927.11 0.6329935413877222
1927.36 0.6196535413877228
1927.6 0.6463235413877221
1927.85 0.6896535413877222
1928.09 0.6763235413877223
1928.34 0.6996535413877228
1928.58 0.6129935413877227
1928.83 0.6229935413877224
1929.07 0.6763235413877223
1929.32 0.6296535413877226
1929.56 0.6096535413877221
1929.81 0.7329935413877228
1930.05 0.5796535413877227
1930.3 0.6329935413877222
1930.54 0.6529935413877227
1930.79 0.6329935413877222
1931.03 0.6596535413877228
1931.28 0.5729935413877226
1931.52 0.6163235413877227
1931.77 0.6729935413877223
1932.01 0.6096535413877221
1932.26 0.6663235413877225
1932.5 0.6996535413877228
1932.75 0.6396535413877223
1932.99 0.6696535413877226
1933.24 0.6429935413877229
1933.48 0.6963235413877228
1933.73 0.6529935413877227
1933.97 0.6163235413877227
1934.22 0.7063235413877226
1934.46 0.6729935413877223
1934.71 0.6863235413877221
1934.95 0.6629935413877225
1935.19 0.7163235413877224
1935.44 0.7063235413877226
1935.68 0.6429935413877229
1935.93 0.6396535413877223
1936.17 0.6529935413877227
1936.42 0.6529935413877227
1936.66 0.6863235413877221
1936.91 0.7029935413877225
1937.15 0.6429935413877229
1937.4 0.682993541387723
1937.64 0.6129935413877227
1937.88 0.6429935413877229
1938.13 0.7029935413877225
1938.37 0.6129935413877227
1938.62 0.6196535413877228
1938.86 0.6596535413877228
1939.11 0.6063235413877229
1939.35 0.5063235413877224
1939.6 0.5929935413877222
1939.84 0.6796535413877224
1940.09 0.6763235413877223
1940.33 0.6329935413877222
1940.57 0.6896535413877222
1940.82 0.5829935413877224
1941.06 0.6463235413877221
1941.31 0.7063235413877226
1941.55 0.6729935413877223
1941.8 0.7263235413877221
1942.04 0.6796535413877224
1942.28 0.6229935413877224
1942.53 0.6429935413877229
1942.77 0.7029935413877225
1943.02 0.6963235413877228
1943.26 0.6096535413877221
1943.51 0.6529935413877227
1943.75 0.6929935413877227
1944.0 0.6329935413877222
1944.24 0.6129935413877227
1944.48 0.6329935413877222
1944.73 0.6429935413877229
1944.97 0.6529935413877227
1945.22 0.6796535413877224
1945.46 0.6496535413877221
1945.7 0.6396535413877223
1945.95 0.6263235413877225
1946.19 0.6296535413877226
1946.44 0.6229935413877224
1946.68 0.6463235413877221
1946.92 0.6129935413877227
1947.17 0.6229935413877224
1947.41 0.6963235413877228
1947.66 0.6263235413877225
1947.9 0.6396535413877223
1948.14 0.682993541387723
1948.39 0.6029935413877229
1948.63 0.5929935413877222
1948.88 0.6529935413877227
1949.12 0.6363235413877223
1949.37 0.6263235413877225
1949.61 0.6363235413877223
1949.85 0.6596535413877228
1950.1 0.6729935413877223
1950.34 0.6229935413877224
1950.59 0.5996535413877223
1950.83 0.6329935413877222
1951.07 0.5863235413877225
1951.32 0.5996535413877223
1951.56 0.6229935413877224
1951.8 0.6529935413877227
1952.05 0.6796535413877224
1952.29 0.6796535413877224
1952.54 0.6996535413877228
1952.78 0.5496535413877225
1953.02 0.5729935413877226
1953.27 0.6329935413877222
1953.51 0.6163235413877227
1953.75 0.6396535413877223
1954.0 0.6796535413877224
1954.24 0.6096535413877221
1954.49 0.682993541387723
1954.73 0.7096535413877226
1954.97 0.7163235413877224
1955.22 0.6396535413877223
1955.46 0.6629935413877225
1955.7 0.682993541387723
