# Created: 2019-11-28 13:05:53.362444
# rshift intensity
76.1738 0.1999999999999993
76.4989 0.34999999999999787
76.824 0.16669999999999874
77.1491 0.26670000000000016
77.4721 0.1833999999999989
77.7972 0.1999999999999993
78.1223 0.21669999999999945
78.4474 0.25
78.7724 0.14999999999999858
79.0975 0.08339999999999748
79.4204 0.16669999999999874
79.7454 0.1333999999999982
80.0704 0.09999999999999787
80.3954 0.11669999999999803
80.7204 0.08339999999999748
81.0454 0.06669999999999732
81.3682 0.16669999999999874
81.6931 0.1333999999999982
82.0181 0.03340000000000032
82.343 0.08339999999999748
82.6679 0.1333999999999982
82.9907 0.11669999999999803
83.3156 0.09999999999999787
83.6405 0.09999999999999787
83.9654 0.1333999999999982
84.2903 0.14999999999999858
84.613 0.04999999999999716
84.9378 0.08339999999999748
85.2626 0.1333999999999982
85.5875 0.09999999999999787
85.9101 0.14999999999999858
86.2349 0.08339999999999748
86.5597 0.06669999999999732
86.8845 0.08339999999999748
87.2093 0.11669999999999803
87.5319 0.1333999999999982
87.8566 0.21669999999999945
88.1814 0.03340000000000032
88.5061 0.16669999999999874
88.8286 0.03340000000000032
89.1533 0.03340000000000032
89.478 0.06669999999999732
89.8027 0.04999999999999716
90.1252 0.06669999999999732
90.4499 0.14999999999999858
90.7745 0.09999999999999787
91.0992 0.1333999999999982
91.4216 0.08339999999999748
91.7462 0.14999999999999858
92.0708 0.06669999999999732
92.3954 0.08339999999999748
92.7179 0.11669999999999803
93.0424 0.09999999999999787
93.367 0.11669999999999803
93.6915 0.1999999999999993
94.0139 0.06669999999999732
94.3384 0.11669999999999803
94.6629 0.01670000000000016
94.9853 0.09999999999999787
95.3098 0.06669999999999732
95.6342 0.1333999999999982
95.9587 0.1333999999999982
96.281 0.06669999999999732
96.6055 0.16669999999999874
96.9299 0.04999999999999716
97.2522 0.11669999999999803
97.5766 0.11669999999999803
97.901 0.04999999999999716
98.2232 0.09999999999999787
98.5476 0.14999999999999858
98.8719 0.16669999999999874
99.1942 0.14999999999999858
99.5185 0.1833999999999989
99.8428 0.1833999999999989
100.165 0.16669999999999874
100.489 0.11669999999999803
100.814 0.08339999999999748
101.136 0.11669999999999803
101.46 0.09999999999999787
101.784 0.04999999999999716
102.106 0.21669999999999945
102.431 0.14999999999999858
102.755 0.1833999999999989
103.077 0.25
103.401 0.14999999999999858
103.725 0.11669999999999803
104.047 0.14999999999999858
104.372 0.1999999999999993
104.696 0.1833999999999989
105.018 0.21669999999999945
105.342 0.1333999999999982
105.666 0.21669999999999945
105.988 0.14999999999999858
106.312 0.1833999999999989
106.634 0.14999999999999858
106.958 0.11669999999999803
107.282 0.14999999999999858
107.604 0.16669999999999874
107.928 0.1999999999999993
108.252 0.11669999999999803
108.574 0.1333999999999982
108.898 0.16669999999999874
109.22 0.09999999999999787
109.544 0.14999999999999858
109.868 0.06669999999999732
110.19 0.11669999999999803
110.514 0.1833999999999989
110.836 0.08339999999999748
111.159 0.14999999999999858
111.483 0.11669999999999803
111.805 0.25
112.129 0.08339999999999748
112.451 0.14999999999999858
112.775 0.16669999999999874
113.096 0.25
113.42 0.1833999999999989
113.744 0.04999999999999716
114.066 0.11669999999999803
114.39 0.16669999999999874
114.711 0.16669999999999874
115.035 0.1333999999999982
115.357 0.14999999999999858
115.681 0.08339999999999748
116.004 0.11669999999999803
116.326 0.06669999999999732
116.65 0.14999999999999858
116.971 0.08339999999999748
117.295 0.21669999999999945
117.617 0.1999999999999993
117.94 0.09999999999999787
118.262 0.1333999999999982
118.586 0.0
118.907 0.11669999999999803
119.231 0.21669999999999945
119.554 0.1333999999999982
119.876 0.08339999999999748
120.199 0.11669999999999803
120.521 0.06669999999999732
120.845 0.14999999999999858
121.166 0.14999999999999858
121.49 0.09999999999999787
121.811 0.14999999999999858
122.135 0.1833999999999989
122.456 0.06669999999999732
122.78 0.1999999999999993
123.101 0.11669999999999803
123.424 0.08339999999999748
123.746 0.16669999999999874
124.069 0.1833999999999989
124.391 0.11669999999999803
124.714 0.14999999999999858
125.035 0.1333999999999982
125.359 0.08339999999999748
125.68 0.1333999999999982
126.004 0.08339999999999748
126.325 0.1833999999999989
126.648 0.1833999999999989
126.97 0.03340000000000032
127.291 0.09999999999999787
127.614 0.25
127.935 0.11669999999999803
128.259 0.1333999999999982
128.58 0.06669999999999732
128.903 0.1999999999999993
129.224 0.1833999999999989
129.548 0.1999999999999993
129.869 0.14999999999999858
130.192 0.1833999999999989
130.513 0.09999999999999787
130.834 0.16669999999999874
131.158 0.2333999999999996
131.479 0.1833999999999989
131.802 0.09999999999999787
132.123 0.2834000000000003
132.446 0.1833999999999989
132.767 0.21669999999999945
133.09 0.04999999999999716
133.411 0.25
133.733 0.11669999999999803
134.056 0.1333999999999982
134.377 0.1833999999999989
134.7 0.14999999999999858
135.021 0.17073138276052546
135.342 0.17356150088843592
135.665 0.17764979673147963
135.986 0.166033782866716
136.309 0.1697044649182402
136.63 0.16777571129279423
136.951 0.17280946092011007
137.274 0.17351474231689323
137.595 0.17235659023987537
137.918 0.17234989142054147
138.238 0.17187002991574474
138.559 0.17725820082399224
138.882 0.16963425810603638
139.203 0.17105721863852708
139.526 0.1676892896440556
139.847 0.177884806439792
140.168 0.17193504513146252
140.491 0.1684657876339628
140.811 0.1686343515190316
141.132 0.1745952835175082
141.455 0.17264764159178725
141.776 0.16425173358272716
142.097 0.1671048171757441
142.419 0.17551822417539498
142.74 0.16793147878639303
143.061 0.16635337101855185
143.384 0.17579199522197797
143.704 0.17091746400852514
144.027 0.1736368938484354
144.348 0.17124611951122404
144.668 0.1721928046374508
144.991 0.17271007245270553
145.312 0.16959570380805644
145.632 0.16730440039491867
145.955 0.17153936699039818
146.276 0.16543045344164042
146.596 0.16565948309797207
146.917 0.16517125606630145
147.24 0.16202942031691236
147.56 0.1711873425872561
147.881 0.16870620484369425
148.203 0.1670211006401523
148.524 0.17309827254647203
148.844 0.16843017114494785
149.167 0.17572008083295998
149.487 0.17154141906084064
149.808 0.175761576105522
150.131 0.17040030171082776
150.451 0.1682299327700285
150.771 0.1633234401669874
151.092 0.1999999999999993
151.414 0.1333999999999982
151.735 0.1999999999999993
152.055 0.16669999999999874
152.378 0.25
152.698 0.14999999999999858
153.018 0.11669999999999803
153.339 0.11669999999999803
153.661 0.2834000000000003
153.982 0.11669999999999803
154.302 0.21669999999999945
154.622 0.14999999999999858
154.945 0.16669999999999874
155.265 0.1333999999999982
155.585 0.1833999999999989
155.905 0.14999999999999858
156.228 0.1999999999999993
156.548 0.11669999999999803
156.868 0.1833999999999989
157.188 0.11669999999999803
157.511 0.1333999999999982
157.831 0.25
158.151 0.08339999999999748
158.471 0.16669999999999874
158.794 0.16669999999999874
159.114 0.11669999999999803
159.434 0.1333999999999982
159.754 0.1999999999999993
160.074 0.16669999999999874
160.396 0.1999999999999993
160.717 0.21669999999999945
161.037 0.1333999999999982
161.357 0.1333999999999982
161.679 0.1833999999999989
161.999 0.1833999999999989
162.319 0.1833999999999989
162.639 0.16669999999999874
162.959 0.16669999999999874
163.281 0.11669999999999803
163.601 0.1833999999999989
163.921 0.16669999999999874
164.241 0.08339999999999748
164.561 0.14999999999999858
164.881 0.1999999999999993
165.203 0.1833999999999989
165.523 0.1333999999999982
165.843 0.14999999999999858
166.163 0.11669999999999803
166.483 0.1333999999999982
166.803 0.08339999999999748
167.125 0.25
167.445 0.1333999999999982
167.764 0.1333999999999982
168.084 0.16669999999999874
168.404 0.14999999999999858
168.724 0.25
169.046 0.14999999999999858
169.366 0.2333999999999996
169.685 0.2333999999999996
170.005 0.08339999999999748
170.325 0.14999999999999858
170.645 0.1999999999999993
170.964 0.26670000000000016
171.286 0.1333999999999982
171.606 0.14999999999999858
171.926 0.1333999999999982
172.245 0.1333999999999982
172.565 0.21669999999999945
172.885 0.2333999999999996
173.204 0.1999999999999993
173.524 0.1333999999999982
173.846 0.2333999999999996
174.166 0.25
174.485 0.1333999999999982
174.805 0.1833999999999989
175.124 0.21669999999999945
175.444 0.1333999999999982
175.764 0.16669999999999874
176.083 0.09999999999999787
176.403 0.14999999999999858
176.722 0.11669999999999803
177.044 0.08339999999999748
177.363 0.16669999999999874
177.683 0.04999999999999716
178.002 0.09999999999999787
178.322 0.2834000000000003
178.641 0.14999999999999858
178.961 0.16669999999999874
179.28 0.16669999999999874
179.6 0.11669999999999803
179.919 0.14999999999999858
180.239 0.16669999999999874
180.558 0.25
180.877 0.1333999999999982
181.197 0.11669999999999803
181.516 0.16669999999999874
181.838 0.1333999999999982
182.157 0.06669999999999732
182.476 0.09999999999999787
182.796 0.14999999999999858
183.115 0.14999999999999858
183.434 0.08339999999999748
183.754 0.16669999999999874
184.073 0.2333999999999996
184.392 0.1999999999999993
184.712 0.1833999999999989
185.031 0.08339999999999748
185.35 0.26670000000000016
185.669 0.1333999999999982
185.989 0.1833999999999989
186.308 0.1333999999999982
186.627 0.1333999999999982
186.946 0.1833999999999989
187.265 0.1333999999999982
187.585 0.16669999999999874
187.904 0.15112754917011273
188.223 0.14880418484242952
188.542 0.15238959820383613
188.861 0.1494709493314197
189.18 0.15008161046313617
189.499 0.14972370313066818
189.818 0.1518967752218785
190.138 0.1499272652215602
190.457 0.1513826302325043
190.776 0.1538516705372892
191.095 0.15270344041898198
191.414 0.15151159537475678
191.733 0.1546595198965086
192.052 0.1535402308967555
192.371 0.15056280283910795
192.69 0.1505240637598213
193.009 0.15296976722977362
193.328 0.15045081053616727
193.647 0.1530409910604007
193.966 0.15289718377784567
194.285 0.14677997482766614
194.602 0.1521491186021997
194.92 0.14969029693413916
195.239 0.15265540173102465
195.558 0.15167965832908337
195.877 0.14896435252698126
196.196 0.14823672667068521
196.515 0.15203480727168284
196.834 0.149281129088628
197.153 0.15401880919343824
197.471 0.15159521202893345
197.79 0.15065453160189435
198.109 0.1526827561019779
198.428 0.15539003037849142
198.747 0.14859822049953664
199.065 0.1508563458631933
199.382 0.14874840838656667
199.701 0.15441438024068788
200.02 0.1496560161799252
200.338 0.14974327962739054
200.657 0.15032928622102304
200.976 0.14700620974532796
201.295 0.15143893078668924
201.613 0.15241486128320147
201.932 0.14919507496501083
202.251 0.1526041652687269
202.567 0.1535796725877283
202.886 0.15210423657267214
203.204 0.15069960873421806
203.523 0.15111147545038506
203.842 0.06669999999999732
204.16 0.1999999999999993
204.479 0.14999999999999858
204.797 0.08339999999999748
205.114 0.14999999999999858
205.433 0.1999999999999993
205.751 0.1833999999999989
206.07 0.08339999999999748
206.388 0.1833999999999989
206.707 0.1333999999999982
207.025 0.11669999999999803
207.342 0.21669999999999945
207.66 0.1333999999999982
207.979 0.25
208.297 0.14999999999999858
208.615 0.1999999999999993
208.934 0.2834000000000003
209.25 0.1333999999999982
209.569 0.11669999999999803
209.887 0.1999999999999993
210.205 0.2333999999999996
210.524 0.26670000000000016
210.842 0.16669999999999874
211.158 0.1333999999999982
211.477 0.14999999999999858
211.795 0.1833999999999989
212.113 0.1333999999999982
212.432 0.04999999999999716
212.75 0.08339999999999748
213.066 0.09999999999999787
213.385 0.1333999999999982
213.703 0.21669999999999945
214.021 0.14999999999999858
214.339 0.1833999999999989
214.656 0.1833999999999989
214.974 0.1999999999999993
215.292 0.26670000000000016
215.61 0.09999999999999787
215.926 0.14999999999999858
216.245 0.26670000000000016
216.563 0.1999999999999993
216.881 0.14999999999999858
217.199 0.11669999999999803
217.515 0.1999999999999993
217.833 0.14999999999999858
218.151 0.14999999999999858
218.469 0.1999999999999993
218.785 0.11669999999999803
219.104 0.06669999999999732
219.422 0.06669999999999732
219.74 0.2834000000000003
220.056 0.1999999999999993
220.374 0.14999999999999858
220.692 0.25
221.01 0.08339999999999748
221.326 0.26670000000000016
221.644 0.2333999999999996
221.962 0.1333999999999982
222.28 0.26670000000000016
222.596 0.1333999999999982
222.914 0.21669999999999945
223.232 0.16669999999999874
223.547 0.21669999999999945
223.865 0.29999999999999716
224.183 0.2834000000000003
224.501 0.3333999999999975
224.817 0.2834000000000003
225.135 0.1999999999999993
225.453 0.26670000000000016
225.768 0.1833999999999989
226.086 0.21669999999999945
226.404 0.14999999999999858
226.722 0.14999999999999858
227.038 0.4333999999999989
227.355 0.1999999999999993
227.673 0.29999999999999716
227.989 0.16669999999999874
228.307 0.1833999999999989
228.625 0.29999999999999716
228.94 0.26670000000000016
229.258 0.1333999999999982
229.576 0.3166999999999973
229.891 0.16669999999999874
230.209 0.25
230.527 0.1999999999999993
230.842 0.25
231.16 0.21669999999999945
231.478 0.14999999999999858
231.793 0.1833999999999989
232.111 0.2333999999999996
232.428 0.2834000000000003
232.744 0.16669999999999874
233.062 0.1999999999999993
233.379 0.25
233.695 0.14999999999999858
234.012 0.16669999999999874
234.33 0.1333999999999982
234.645 0.14999999999999858
234.963 0.16669999999999874
235.278 0.2333999999999996
235.596 0.21669999999999945
235.913 0.1999999999999993
236.229 0.2834000000000003
236.546 0.1833999999999989
236.864 0.1833999999999989
237.179 0.3333999999999975
237.497 0.21669999999999945
237.812 0.1833999999999989
238.129 0.16669999999999874
238.447 0.14999999999999858
238.762 0.26670000000000016
239.08 0.14999999999999858
239.395 0.25
239.712 0.1333999999999982
240.03 0.25
240.345 0.25
240.662 0.09999999999999787
240.978 0.1999999999999993
241.295 0.25
241.61 0.1333999999999982
241.927 0.26670000000000016
242.245 0.25
242.56 0.1333999999999982
242.877 0.25
243.192 0.1333999999999982
243.51 0.2834000000000003
243.825 0.2834000000000003
244.142 0.2834000000000003
244.459 0.29999999999999716
244.774 0.1999999999999993
245.092 0.21669999999999945
245.407 0.21669999999999945
245.724 0.3166999999999973
246.039 0.25
246.356 0.1999999999999993
246.671 0.26670000000000016
246.988 0.2834000000000003
247.303 0.1999999999999993
247.62 0.25
247.938 0.1833999999999989
248.253 0.1833999999999989
248.57 0.21669999999999945
248.885 0.3166999999999973
249.202 0.25
249.517 0.1333999999999982
249.834 0.25
250.149 0.11669999999999803
250.466 0.2333999999999996
250.781 0.3333999999999975
251.098 0.21669999999999945
251.412 0.2333999999999996
251.729 0.25
252.044 0.2333999999999996
252.361 0.21669999999999945
252.676 0.2333999999999996
252.993 0.29999999999999716
253.308 0.09999999999999787
253.625 0.2333999999999996
253.94 0.29999999999999716
254.256 0.3166999999999973
254.571 0.26670000000000016
254.888 0.1999999999999993
255.203 0.1999999999999993
255.518 0.1833999999999989
255.834 0.1999999999999993
256.149 0.21669999999999945
256.466 0.11669999999999803
256.781 0.26670000000000016
257.097 0.1833999999999989
257.412 0.25
257.729 0.29999999999999716
258.044 0.26670000000000016
258.36 0.29999999999999716
258.675 0.16669999999999874
258.99 0.2333999999999996
259.306 0.2333999999999996
259.621 0.21669999999999945
259.938 0.2333999999999996
260.252 0.14999999999999858
260.569 0.2834000000000003
260.883 0.3166999999999973
261.198 0.1333999999999982
261.515 0.26670000000000016
261.829 0.2333999999999996
262.146 0.11669999999999803
262.46 0.1833999999999989
262.775 0.21669999999999945
263.091 0.16669999999999874
263.406 0.1999999999999993
263.723 0.1833999999999989
264.037 0.16669999999999874
264.354 0.1333999999999982
264.668 0.21669999999999945
264.982 0.25
265.299 0.1333999999999982
265.613 0.1833999999999989
265.928 0.1999999999999993
266.244 0.29999999999999716
266.559 0.25
266.875 0.25
267.189 0.14999999999999858
267.504 0.1833999999999989
267.82 0.29999999999999716
268.134 0.2333999999999996
268.449 0.14999999999999858
268.765 0.2333999999999996
269.079 0.25
269.394 0.1833999999999989
269.71 0.1833999999999989
270.024 0.26670000000000016
270.341 0.25
270.655 0.11669999999999803
270.969 0.21669999999999945
271.286 0.21669999999999945
271.6 0.2333999999999996
271.914 0.21669999999999945
272.23 0.1333999999999982
272.544 0.3166999999999973
272.859 0.1833999999999989
273.175 0.16669999999999874
273.489 0.1999999999999993
273.803 0.21669999999999945
274.119 0.25
274.433 0.2333999999999996
274.747 0.16669999999999874
275.062 0.2834000000000003
275.378 0.29999999999999716
275.692 0.25
276.006 0.16669999999999874
276.322 0.25
276.636 0.1833999999999989
276.95 0.14999999999999858
277.266 0.2834000000000003
277.58 0.2834000000000003
277.894 0.29999999999999716
278.208 0.14999999999999858
278.524 0.26670000000000016
278.838 0.1333999999999982
279.152 0.26670000000000016
279.468 0.3333999999999975
279.782 0.2333999999999996
280.096 0.2333999999999996
280.41 0.1999999999999993
280.726 0.1833999999999989
281.04 0.26670000000000016
281.354 0.26670000000000016
281.668 0.2834000000000003
281.983 0.25
282.297 0.21669999999999945
282.611 0.25
282.925 0.2333999999999996
283.241 0.2333999999999996
283.555 0.25
283.868 0.25
284.182 0.25
284.498 0.21669999999999945
284.812 0.14999999999999858
285.126 0.1999999999999993
285.439 0.26670000000000016
285.753 0.1833999999999989
286.069 0.26670000000000016
286.383 0.1333999999999982
286.696 0.3333999999999975
287.01 0.29999999999999716
287.326 0.3166999999999973
287.639 0.16669999999999874
287.953 0.1999999999999993
288.267 0.1999999999999993
288.58 0.11669999999999803
288.896 0.16669999999999874
289.21 0.1333999999999982
289.523 0.26670000000000016
289.837 0.3333999999999975
290.15 0.25
290.466 0.29999999999999716
290.78 0.3166999999999973
291.093 0.25
291.407 0.2333999999999996
291.72 0.09999999999999787
292.034 0.1999999999999993
292.349 0.16669999999999874
292.663 0.25
292.976 0.25
293.29 0.26670000000000016
293.603 0.2834000000000003
293.917 0.16669999999999874
294.232 0.2333999999999996
294.546 0.2834000000000003
294.859 0.1833999999999989
295.172 0.25
295.486 0.21669999999999945
295.799 0.25
296.113 0.1833999999999989
296.428 0.11669999999999803
296.741 0.1999999999999993
297.055 0.16669999999999874
297.368 0.2834000000000003
297.681 0.16669999999999874
297.995 0.16669999999999874
298.308 0.25
298.621 0.25
298.937 0.25
299.25 0.1999999999999993
299.563 0.1833999999999989
299.876 0.16669999999999874
300.19 0.2333999999999996
300.503 0.2834000000000003
300.816 0.1833999999999989
301.129 0.25
301.442 0.25
301.756 0.2333999999999996
302.071 0.1999999999999993
302.384 0.21669999999999945
302.697 0.3166999999999973
303.01 0.1333999999999982
303.323 0.26670000000000016
303.637 0.21669999999999945
303.95 0.21669999999999945
304.263 0.3166999999999973
304.576 0.25
304.889 0.25
305.202 0.16669999999999874
305.515 0.1999999999999993
305.828 0.16669999999999874
306.141 0.1833999999999989
306.456 0.11669999999999803
306.769 0.3333999999999975
307.082 0.11669999999999803
307.395 0.1999999999999993
307.708 0.2333999999999996
308.021 0.08339999999999748
308.334 0.2333999999999996
308.647 0.16669999999999874
308.96 0.2834000000000003
309.273 0.11669999999999803
309.586 0.2333999999999996
309.899 0.2834000000000003
310.212 0.2834000000000003
310.525 0.29999999999999716
310.838 0.1833999999999989
311.15 0.1333999999999982
311.463 0.2333999999999996
311.776 0.1333999999999982
312.089 0.21669999999999945
312.402 0.25
312.715 0.29999999999999716
313.027 0.16669999999999874
313.34 0.25
313.653 0.2333999999999996
313.966 0.21669999999999945
314.278 0.1833999999999989
314.591 0.16669999999999874
314.904 0.25
315.217 0.1833999999999989
315.529 0.1999999999999993
315.842 0.14999999999999858
316.155 0.25
316.467 0.1833999999999989
316.78 0.2333999999999996
317.093 0.1999999999999993
317.405 0.1833999999999989
317.718 0.26670000000000016
318.031 0.2333999999999996
318.343 0.1833999999999989
318.656 0.16669999999999874
318.969 0.29999999999999716
319.281 0.1999999999999993
319.592 0.25
319.904 0.25
320.217 0.1833999999999989
320.529 0.1833999999999989
320.842 0.2333999999999996
321.154 0.16669999999999874
321.467 0.21669999999999945
321.779 0.2834000000000003
322.092 0.2333999999999996
322.404 0.366699999999998
322.717 0.09999999999999787
323.029 0.2834000000000003
323.342 0.25
323.654 0.1833999999999989
323.965 0.2333999999999996
324.277 0.25
324.589 0.2333999999999996
324.902 0.21669999999999945
325.214 0.2834000000000003
325.527 0.1833999999999989
325.839 0.14999999999999858
326.151 0.3833999999999982
326.464 0.26670000000000016
326.776 0.26670000000000016
327.086 0.21669999999999945
327.399 0.3166999999999973
327.711 0.2333999999999996
328.023 0.16669999999999874
328.335 0.25
328.648 0.3333999999999975
328.96 0.26670000000000016
329.27 0.3333999999999975
329.582 0.3833999999999982
329.895 0.3999999999999986
330.207 0.2834000000000003
330.519 0.1999999999999993
330.831 0.2834000000000003
331.143 0.4333999999999989
331.454 0.29999999999999716
331.766 0.3833999999999982
332.078 0.4333999999999989
332.39 0.4333999999999989
332.702 0.26670000000000016
333.014 0.41669999999999874
333.326 0.3999999999999986
333.636 0.16669999999999874
333.948 0.3333999999999975
334.261 0.26670000000000016
334.573 0.3166999999999973
334.885 0.16669999999999874
335.195 0.3333999999999975
335.507 0.2333999999999996
335.819 0.3166999999999973
336.131 0.366699999999998
336.443 0.2333999999999996
336.753 0.2834000000000003
337.065 0.2333999999999996
337.377 0.21669999999999945
337.689 0.34999999999999787
338.001 0.2333999999999996
338.31 0.21669999999999945
338.622 0.2333999999999996
338.934 0.26670000000000016
339.246 0.25
339.558 0.29999999999999716
339.868 0.1999999999999993
340.18 0.3166999999999973
340.492 0.2333999999999996
340.804 0.2333999999999996
341.113 0.2834000000000003
341.425 0.3166999999999973
341.737 0.34999999999999787
342.049 0.1833999999999989
342.361 0.2333999999999996
342.67 0.2834000000000003
342.982 0.366699999999998
343.294 0.25
343.606 0.2333999999999996
343.915 0.29999999999999716
344.227 0.29999999999999716
344.539 0.29999999999999716
344.849 0.3333999999999975
345.16 0.25
345.472 0.41669999999999874
345.784 0.2834000000000003
346.093 0.366699999999998
346.405 0.3333999999999975
346.717 0.366699999999998
347.028 0.3833999999999982
347.338 0.25
347.649 0.29999999999999716
347.961 0.3999999999999986
348.271 0.34999999999999787
348.582 0.29999999999999716
348.894 0.4333999999999989
349.205 0.3333999999999975
349.515 0.14999999999999858
349.826 0.2333999999999996
350.138 0.3166999999999973
350.447 0.4499999999999993
350.759 0.26670000000000016
351.07 0.1999999999999993
351.38 0.26670000000000016
351.691 0.25
352.003 0.1999999999999993
352.312 0.3833999999999982
352.624 0.21669999999999945
352.935 0.3166999999999973
353.245 0.3166999999999973
353.556 0.21669999999999945
353.867 0.3166999999999973
354.177 0.2333999999999996
354.488 0.3833999999999982
354.799 0.26670000000000016
355.109 0.1833999999999989
355.42 0.3833999999999982
355.732 0.26670000000000016
356.041 0.25
356.352 0.41669999999999874
356.663 0.2834000000000003
356.973 0.2834000000000003
357.284 0.34999999999999787
357.593 0.3166999999999973
357.905 0.2333999999999996
358.216 0.2333999999999996
358.525 0.25
358.836 0.25
359.147 0.1999999999999993
359.457 0.2834000000000003
359.768 0.21669999999999945
360.077 0.34999999999999787
360.388 0.1999999999999993
360.699 0.2333999999999996
361.008 0.25
361.32 0.16669999999999874
361.629 0.21669999999999945
361.94 0.2333999999999996
362.251 0.25
362.56 0.25
362.871 0.25
363.18 0.3333999999999975
363.491 0.3166999999999973
363.8 0.2333999999999996
364.111 0.3166999999999973
364.422 0.1999999999999993
364.731 0.3166999999999973
365.042 0.21669999999999945
365.351 0.14999999999999858
365.662 0.34999999999999787
365.971 0.29999999999999716
366.282 0.21669999999999945
366.593 0.25
366.902 0.366699999999998
367.213 0.25
367.522 0.25
367.833 0.34999999999999787
368.142 0.3166999999999973
368.453 0.2834000000000003
368.762 0.1999999999999993
369.073 0.2333999999999996
369.381 0.2834000000000003
369.692 0.21669999999999945
370.001 0.29999999999999716
370.312 0.26670000000000016
370.623 0.34999999999999787
370.932 0.3333999999999975
371.242 0.3166999999999973
371.551 0.2834000000000003
371.862 0.34999999999999787
372.171 0.2333999999999996
372.482 0.2333999999999996
372.79 0.1999999999999993
373.101 0.29999999999999716
373.41 0.25
373.721 0.1999999999999993
374.029 0.41669999999999874
374.34 0.34999999999999787
374.649 0.1999999999999993
374.959 0.3166999999999973
375.268 0.2834000000000003
375.577 0.3166999999999973
375.887 0.25
376.196 0.21669999999999945
376.506 0.26670000000000016
376.815 0.3166999999999973
377.126 0.41669999999999874
377.434 0.26670000000000016
377.745 0.2834000000000003
378.053 0.2834000000000003
378.364 0.25
378.672 0.29999999999999716
378.983 0.3166999999999973
379.292 0.25
379.6 0.3166999999999973
379.911 0.2333999999999996
380.219 0.3166999999999973
380.53 0.29999999999999716
380.838 0.2834000000000003
381.148 0.3333999999999975
381.457 0.1999999999999993
381.767 0.1833999999999989
382.076 0.25
382.384 0.25
382.695 0.2834000000000003
383.003 0.26670000000000016
383.313 0.3333999999999975
383.622 0.21669999999999945
383.93 0.26670000000000016
384.24 0.4499999999999993
384.549 0.3833999999999982
384.859 0.366699999999998
385.167 0.09999999999999787
385.476 0.2834000000000003
385.786 0.26670000000000016
386.094 0.25
386.405 0.26670000000000016
386.713 0.3166999999999973
387.021 0.29999999999999716
387.331 0.29999999999999716
387.64 0.2333999999999996
387.948 0.3999999999999986
388.258 0.2333999999999996
388.566 0.3166999999999973
388.877 0.29999999999999716
389.185 0.29999999999999716
389.493 0.26670000000000016
389.803 0.3333999999999975
390.111 0.34999999999999787
390.419 0.26670000000000016
390.729 0.21669999999999945
391.038 0.366699999999998
391.346 0.25
391.656 0.25
391.964 0.26670000000000016
392.272 0.3166999999999973
392.582 0.26670000000000016
392.89 0.29999999999999716
393.198 0.29999999999999716
393.508 0.29999999999999716
393.816 0.366699999999998
394.124 0.34999999999999787
394.434 0.26670000000000016
394.742 0.34999999999999787
395.05 0.3333999999999975
395.36 0.4333999999999989
395.668 0.21669999999999945
395.976 0.1999999999999993
396.286 0.29999999999999716
396.594 0.26670000000000016
396.902 0.3166999999999973
397.21 0.26670000000000016
397.52 0.2333999999999996
397.828 0.26670000000000016
398.135 0.29999999999999716
398.445 0.26670000000000016
398.753 0.46669999999999945
399.061 0.1833999999999989
399.369 0.34999999999999787
399.679 0.34999999999999787
399.987 0.26670000000000016
400.294 0.25
400.604 0.25
400.912 0.3999999999999986
401.22 0.26670000000000016
401.527 0.3333999999999975
401.837 0.26670000000000016
402.145 0.25
402.453 0.21669999999999945
402.76 0.34999999999999787
403.07 0.3166999999999973
403.378 0.29999999999999716
403.686 0.3166999999999973
403.993 0.2834000000000003
404.303 0.26670000000000016
404.611 0.46669999999999945
404.918 0.3833999999999982
405.226 0.25
405.533 0.3833999999999982
405.843 0.26670000000000016
406.151 0.3833999999999982
406.458 0.3333999999999975
406.766 0.2834000000000003
407.076 0.34999999999999787
407.383 0.3166999999999973
407.691 0.29999999999999716
407.998 0.34999999999999787
408.306 0.3999999999999986
408.615 0.3333999999999975
408.923 0.366699999999998
409.23 0.2834000000000003
409.538 0.2834000000000003
409.845 0.2834000000000003
410.153 0.4333999999999989
410.462 0.3999999999999986
410.77 0.2834000000000003
411.077 0.29999999999999716
411.384 0.366699999999998
411.692 0.34999999999999787
412.001 0.2834000000000003
412.309 0.5666999999999973
412.616 0.41669999999999874
412.923 0.3833999999999982
413.231 0.5334000000000003
413.538 0.34999999999999787
413.845 0.3833999999999982
414.155 0.4333999999999989
414.462 0.3999999999999986
414.769 0.41669999999999874
415.077 0.3833999999999982
415.384 0.4333999999999989
415.691 0.41669999999999874
415.999 0.3833999999999982
416.308 0.5167000000000002
416.615 0.4499999999999993
416.922 0.4333999999999989
417.23 0.5833999999999975
417.537 0.5167000000000002
417.844 0.6999999999999993
418.151 0.616699999999998
418.458 0.6833999999999989
418.768 0.6499999999999986
419.075 0.75
419.382 0.5999999999999979
419.689 0.7166999999999994
419.996 0.8333999999999975
420.303 0.7999999999999972
420.61 0.7166999999999994
420.918 0.9666999999999994
421.225 0.7333999999999996
421.532 0.9666999999999994
421.841 1.0
422.148 1.25
422.455 1.2999999999999972
422.762 1.1666999999999987
423.069 1.1999999999999993
423.376 1.4499999999999993
423.683 1.4166999999999987
423.99 1.5499999999999972
424.297 1.4833999999999996
424.604 1.6999999999999993
424.911 1.5666999999999973
425.218 1.8499999999999979
425.525 1.5833999999999975
425.832 1.683399999999999
426.139 1.6999999999999993
426.446 1.5499999999999972
426.753 1.6999999999999993
427.061 1.7166999999999994
427.368 1.616699999999998
427.675 1.4833999999999996
427.982 1.3166999999999973
428.289 1.5666999999999973
428.596 1.2667000000000002
428.903 1.2999999999999972
429.209 1.366699999999998
429.516 1.1999999999999993
429.823 1.25
430.13 0.9833999999999996
430.437 0.8999999999999986
430.743 0.8999999999999986
431.05 1.0167000000000002
431.357 1.0666999999999973
431.664 1.0666999999999973
431.97 0.8333999999999975
432.277 0.8499999999999979
432.584 0.6499999999999986
432.891 0.8499999999999979
433.197 0.7166999999999994
433.504 0.7333999999999996
433.811 0.6333999999999982
434.117 0.4833999999999996
434.424 0.5666999999999973
434.731 0.5999999999999979
435.037 0.6499999999999986
435.344 0.6333999999999982
435.65 0.5167000000000002
435.957 0.5499999999999972
436.262 0.5999999999999979
436.568 0.3833999999999982
436.875 0.41669999999999874
437.181 0.6499999999999986
437.488 0.4833999999999996
437.794 0.5167000000000002
438.101 0.46669999999999945
438.407 0.5499999999999972
438.714 0.2333999999999996
439.02 0.46669999999999945
439.327 0.4333999999999989
439.633 0.46669999999999945
439.94 0.4333999999999989
440.246 0.34999999999999787
440.553 0.3166999999999973
440.859 0.26670000000000016
441.163 0.41669999999999874
441.47 0.2834000000000003
441.776 0.34999999999999787
442.083 0.5167000000000002
442.389 0.366699999999998
442.695 0.5
443.002 0.3333999999999975
443.308 0.366699999999998
443.614 0.3833999999999982
443.921 0.26670000000000016
444.225 0.4499999999999993
444.531 0.3166999999999973
444.838 0.366699999999998
445.144 0.5167000000000002
445.45 0.366699999999998
445.757 0.25
446.063 0.3166999999999973
446.369 0.5499999999999972
446.675 0.5
446.979 0.26670000000000016
447.286 0.46669999999999945
447.592 0.41669999999999874
447.898 0.4833999999999996
448.204 0.366699999999998
448.51 0.5334000000000003
448.817 0.3833999999999982
449.121 0.3833999999999982
449.427 0.2834000000000003
449.733 0.41669999999999874
450.039 0.2834000000000003
450.345 0.366699999999998
450.651 0.2834000000000003
450.955 0.4499999999999993
451.261 0.5
451.568 0.41669999999999874
451.874 0.4333999999999989
452.18 0.366699999999998
452.486 0.29999999999999716
452.79 0.5334000000000003
453.096 0.34999999999999787
453.402 0.4833999999999996
453.708 0.25
454.014 0.3166999999999973
454.318 0.4333999999999989
454.624 0.41669999999999874
454.93 0.3999999999999986
455.236 0.2834000000000003
455.541 0.25
455.845 0.3833999999999982
456.151 0.3333999999999975
456.457 0.34999999999999787
456.763 0.3333999999999975
457.067 0.3333999999999975
457.373 0.1833999999999989
457.679 0.41669999999999874
457.985 0.2834000000000003
458.29 0.2834000000000003
458.594 0.4333999999999989
458.9 0.3333999999999975
459.206 0.2834000000000003
459.512 0.3833999999999982
459.815 0.2834000000000003
460.121 0.2834000000000003
460.427 0.3999999999999986
460.733 0.26670000000000016
461.036 0.3166999999999973
461.342 0.2834000000000003
461.648 0.3333999999999975
461.954 0.34999999999999787
462.257 0.29999999999999716
462.563 0.366699999999998
462.869 0.2834000000000003
463.172 0.46669999999999945
463.478 0.3166999999999973
463.784 0.41669999999999874
464.089 0.3833999999999982
464.393 0.366699999999998
464.699 0.2834000000000003
465.004 0.29999999999999716
465.308 0.25
465.613 0.3166999999999973
465.919 0.34999999999999787
466.225 0.2333999999999996
466.528 0.3999999999999986
466.834 0.3166999999999973
467.139 0.4333999999999989
467.443 0.3166999999999973
467.748 0.16669999999999874
468.054 0.3166999999999973
468.357 0.3166999999999973
468.663 0.366699999999998
468.968 0.3333999999999975
469.272 0.3166999999999973
469.577 0.2834000000000003
469.883 0.34999999999999787
470.186 0.4333999999999989
470.492 0.1999999999999993
470.797 0.4833999999999996
471.1 0.3833999999999982
471.406 0.3833999999999982
471.711 0.34999999999999787
472.014 0.3166999999999973
472.32 0.366699999999998
472.625 0.41669999999999874
472.929 0.3333999999999975
473.234 0.34999999999999787
473.539 0.3333999999999975
473.843 0.3166999999999973
474.148 0.3833999999999982
474.451 0.34999999999999787
474.756 0.34999999999999787
475.062 0.34999999999999787
475.365 0.3999999999999986
475.67 0.4333999999999989
475.973 0.5
476.279 0.3833999999999982
476.584 0.4499999999999993
476.887 0.5499999999999972
477.192 0.4499999999999993
477.498 0.4499999999999993
477.801 0.5999999999999979
478.106 0.6833999999999989
478.409 0.866699999999998
478.714 0.6666999999999987
479.017 0.8166999999999973
479.322 0.7166999999999994
479.628 0.5499999999999972
479.931 0.7333999999999996
480.236 0.7999999999999972
480.539 0.9499999999999993
480.844 1.0167000000000002
481.147 0.8999999999999986
481.452 0.75
481.757 0.8166999999999973
482.06 0.8999999999999986
482.365 0.866699999999998
482.668 0.6833999999999989
482.973 0.7333999999999996
483.276 0.9833999999999996
483.581 0.7166999999999994
483.884 0.6666999999999987
484.189 0.5499999999999972
484.494 0.6666999999999987
484.797 0.5
485.102 0.41669999999999874
485.405 0.6999999999999993
485.71 0.3999999999999986
486.013 0.5
486.318 0.4499999999999993
486.621 0.34999999999999787
486.925 0.3999999999999986
487.228 0.3333999999999975
487.533 0.46669999999999945
487.836 0.4833999999999996
488.141 0.4499999999999993
488.444 0.3333999999999975
488.748 0.4333999999999989
489.051 0.3999999999999986
489.356 0.3999999999999986
489.659 0.29999999999999716
489.964 0.4333999999999989
490.266 0.3333999999999975
490.571 0.34999999999999787
490.874 0.34999999999999787
491.179 0.41669999999999874
491.481 0.41669999999999874
491.786 0.366699999999998
492.089 0.3166999999999973
492.393 0.3333999999999975
492.696 0.34999999999999787
493.001 0.25
493.303 0.366699999999998
493.606 0.3166999999999973
493.911 0.26670000000000016
494.213 0.3333999999999975
494.518 0.26670000000000016
494.821 0.34999999999999787
495.125 0.4333999999999989
495.428 0.26670000000000016
495.732 0.2834000000000003
496.035 0.26670000000000016
496.337 0.26670000000000016
496.642 0.34999999999999787
496.945 0.2834000000000003
497.249 0.41669999999999874
497.552 0.41669999999999874
497.856 0.3333999999999975
498.159 0.3999999999999986
498.461 0.1833999999999989
498.766 0.34999999999999787
499.068 0.3333999999999975
499.372 0.366699999999998
499.675 0.26670000000000016
499.977 0.3333999999999975
500.282 0.16669999999999874
500.584 0.2834000000000003
500.889 0.3333999999999975
501.191 0.3333999999999975
501.493 0.21669999999999945
501.798 0.3333999999999975
502.1 0.21669999999999945
502.402 0.2834000000000003
502.707 0.26670000000000016
503.009 0.26670000000000016
503.314 0.4833999999999996
503.616 0.21669999999999945
503.918 0.3333999999999975
504.222 0.34999999999999787
504.525 0.3999999999999986
504.827 0.2333999999999996
505.131 0.1833999999999989
505.433 0.3333999999999975
505.736 0.26670000000000016
506.04 0.29999999999999716
506.342 0.3166999999999973
506.646 0.34999999999999787
506.949 0.3166999999999973
507.251 0.2834000000000003
507.555 0.34999999999999787
507.857 0.366699999999998
508.159 0.3333999999999975
508.461 0.3333999999999975
508.766 0.366699999999998
509.068 0.2333999999999996
509.37 0.3166999999999973
509.674 0.366699999999998
509.976 0.3166999999999973
510.278 0.3166999999999973
510.582 0.3166999999999973
510.884 0.3166999999999973
511.186 0.1999999999999993
511.49 0.3166999999999973
511.792 0.2834000000000003
512.094 0.2834000000000003
512.396 0.366699999999998
512.701 0.2834000000000003
513.003 0.3166999999999973
513.305 0.34999999999999787
513.609 0.3999999999999986
513.91 0.29999999999999716
514.212 0.29999999999999716
514.514 0.3333999999999975
514.818 0.2834000000000003
515.12 0.3166999999999973
515.422 0.34999999999999787
515.724 0.3999999999999986
516.028 0.21669999999999945
516.33 0.3333999999999975
516.632 0.29999999999999716
516.934 0.3999999999999986
517.237 0.2834000000000003
517.539 0.3999999999999986
517.841 0.14999999999999858
518.143 0.25
518.447 0.29999999999999716
518.749 0.34999999999999787
519.05 0.29999999999999716
519.352 0.3166999999999973
519.656 0.21669999999999945
519.958 0.3166999999999973
520.26 0.26670000000000016
520.561 0.3833999999999982
520.863 0.3833999999999982
521.167 0.2333999999999996
521.468 0.3333999999999975
521.77 0.3166999999999973
522.072 0.34999999999999787
522.376 0.3833999999999982
522.677 0.3999999999999986
522.979 0.3833999999999982
523.281 0.26670000000000016
523.582 0.2834000000000003
523.884 0.4499999999999993
524.187 0.4333999999999989
524.489 0.3833999999999982
524.791 0.29999999999999716
525.092 0.46669999999999945
525.394 0.2834000000000003
525.697 0.4333999999999989
525.999 0.3999999999999986
526.301 0.3166999999999973
526.602 0.46669999999999945
526.904 0.3833999999999982
527.205 0.29999999999999716
527.507 0.3166999999999973
527.81 0.26670000000000016
528.112 0.3166999999999973
528.413 0.3833999999999982
528.715 0.29999999999999716
529.016 0.3166999999999973
529.318 0.26670000000000016
529.619 0.3166999999999973
529.922 0.25
530.224 0.3833999999999982
530.525 0.29999999999999716
530.827 0.3333999999999975
531.128 0.3999999999999986
531.429 0.2333999999999996
531.731 0.26670000000000016
532.032 0.2834000000000003
532.336 0.3166999999999973
532.637 0.4499999999999993
532.938 0.3333999999999975
533.24 0.3333999999999975
533.541 0.3333999999999975
533.842 0.3166999999999973
534.143 0.3999999999999986
534.445 0.26670000000000016
534.746 0.4333999999999989
535.047 0.3999999999999986
535.351 0.3333999999999975
535.652 0.4333999999999989
535.953 0.29999999999999716
536.254 0.3333999999999975
536.555 0.41669999999999874
536.857 0.29999999999999716
537.158 0.3999999999999986
537.459 0.2834000000000003
537.76 0.2834000000000003
538.061 0.3999999999999986
538.362 0.26670000000000016
538.664 0.3333999999999975
538.965 0.3999999999999986
539.266 0.3166999999999973
539.567 0.34999999999999787
539.868 0.3833999999999982
540.169 0.26670000000000016
540.472 0.21669999999999945
540.773 0.3333999999999975
541.074 0.29999999999999716
541.375 0.3833999999999982
541.677 0.25
541.978 0.3166999999999973
542.279 0.3333999999999975
542.58 0.3999999999999986
542.881 0.3166999999999973
543.182 0.34999999999999787
543.483 0.29999999999999716
543.784 0.4499999999999993
544.085 0.3166999999999973
544.385 0.26670000000000016
544.686 0.29999999999999716
544.987 0.3999999999999986
545.288 0.25
545.589 0.3333999999999975
545.89 0.25
546.191 0.3833999999999982
546.492 0.3166999999999973
546.793 0.34999999999999787
547.094 0.41669999999999874
547.394 0.3166999999999973
547.695 0.4833999999999996
547.996 0.2834000000000003
548.297 0.4499999999999993
548.596 0.3333999999999975
548.897 0.5499999999999972
549.197 0.46669999999999945
549.498 0.4499999999999993
549.799 0.46669999999999945
550.1 0.46669999999999945
550.4 0.46669999999999945
550.701 0.3999999999999986
551.002 0.46669999999999945
551.303 0.3333999999999975
551.603 0.3833999999999982
551.904 0.5499999999999972
552.205 0.6333999999999982
552.505 0.4833999999999996
552.806 0.4499999999999993
553.107 0.5334000000000003
553.407 0.4833999999999996
553.706 0.5833999999999975
554.007 0.5666999999999973
554.307 0.5999999999999979
554.608 0.41669999999999874
554.909 0.5666999999999973
555.209 0.5499999999999972
555.51 0.6999999999999993
555.81 0.5167000000000002
556.111 0.5
556.411 0.5833999999999975
556.71 0.5334000000000003
557.01 0.5499999999999972
557.311 0.5666999999999973
557.612 0.5999999999999979
557.912 0.7166999999999994
558.213 0.5999999999999979
558.513 0.41669999999999874
558.813 0.41669999999999874
559.112 0.5
559.412 0.366699999999998
559.713 0.4499999999999993
560.013 0.46669999999999945
560.314 0.5833999999999975
560.614 0.46669999999999945
560.914 0.46669999999999945
561.213 0.34999999999999787
561.513 0.366699999999998
561.814 0.4333999999999989
562.114 0.3333999999999975
562.414 0.3166999999999973
562.715 0.3999999999999986
563.015 0.3166999999999973
563.313 0.34999999999999787
563.614 0.4499999999999993
563.914 0.2834000000000003
564.214 0.3333999999999975
564.515 0.366699999999998
564.813 0.46669999999999945
565.113 0.41669999999999874
565.413 0.4333999999999989
565.714 0.3833999999999982
566.014 0.29999999999999716
566.312 0.41669999999999874
566.612 0.4499999999999993
566.912 0.366699999999998
567.213 0.4499999999999993
567.513 0.29999999999999716
567.811 0.3333999999999975
568.111 0.3166999999999973
568.411 0.34999999999999787
568.712 0.34999999999999787
569.012 0.3166999999999973
569.31 0.3333999999999975
569.61 0.3999999999999986
569.91 0.34999999999999787
570.21 0.3166999999999973
570.508 0.4333999999999989
570.808 0.4333999999999989
571.108 0.3833999999999982
571.408 0.3333999999999975
571.706 0.2834000000000003
572.006 0.34999999999999787
572.306 0.34999999999999787
572.607 0.3833999999999982
572.904 0.2834000000000003
573.204 0.3833999999999982
573.505 0.34999999999999787
573.805 0.4499999999999993
574.102 0.3833999999999982
574.402 0.34999999999999787
574.702 0.3166999999999973
575.002 0.5167000000000002
575.3 0.29999999999999716
575.6 0.26670000000000016
575.9 0.3166999999999973
576.198 0.366699999999998
576.498 0.29999999999999716
576.798 0.5
577.098 0.29999999999999716
577.395 0.3166999999999973
577.695 0.3333999999999975
577.995 0.366699999999998
578.293 0.3166999999999973
578.593 0.41669999999999874
578.893 0.3833999999999982
579.19 0.1833999999999989
579.49 0.3166999999999973
579.79 0.25
580.088 0.25
580.387 0.3999999999999986
580.687 0.3333999999999975
580.985 0.3999999999999986
581.285 0.34999999999999787
581.584 0.34999999999999787
581.882 0.3333999999999975
582.182 0.29999999999999716
582.482 0.3833999999999982
582.779 0.3833999999999982
583.079 0.4499999999999993
583.378 0.366699999999998
583.676 0.29999999999999716
583.976 0.3333999999999975
584.275 0.21669999999999945
584.573 0.34999999999999787
584.873 0.29999999999999716
585.17 0.2834000000000003
585.47 0.26670000000000016
585.769 0.3166999999999973
586.067 0.3166999999999973
586.367 0.34999999999999787
586.666 0.2834000000000003
586.964 0.366699999999998
587.263 0.21669999999999945
587.561 0.26670000000000016
587.86 0.3166999999999973
588.16 0.26670000000000016
588.457 0.2834000000000003
588.757 0.21669999999999945
589.054 0.3833999999999982
589.354 0.34999999999999787
589.653 0.366699999999998
589.951 0.3166999999999973
590.25 0.34999999999999787
590.547 0.2834000000000003
590.847 0.29999999999999716
591.144 0.26670000000000016
591.444 0.25
591.743 0.3166999999999973
592.04 0.21669999999999945
592.34 0.3333999999999975
592.637 0.34999999999999787
592.936 0.3999999999999986
593.234 0.3833999999999982
593.533 0.366699999999998
593.832 0.29999999999999716
594.13 0.2333999999999996
594.429 0.3333999999999975
594.726 0.3166999999999973
595.026 0.3833999999999982
595.323 0.34999999999999787
595.622 0.3166999999999973
595.919 0.366699999999998
596.219 0.3333999999999975
596.516 0.3333999999999975
596.815 0.25
597.112 0.3333999999999975
597.411 0.4833999999999996
597.709 0.2834000000000003
598.008 0.25
598.305 0.26670000000000016
598.604 0.1333999999999982
598.901 0.41669999999999874
599.2 0.2834000000000003
599.497 0.366699999999998
599.797 0.29999999999999716
600.094 0.3333999999999975
600.393 0.26670000000000016
600.69 0.41669999999999874
600.989 0.34999999999999787
601.286 0.26670000000000016
601.585 0.41669999999999874
601.882 0.3333999999999975
602.181 0.366699999999998
602.478 0.3999999999999986
602.777 0.3333999999999975
603.074 0.3166999999999973
603.373 0.3166999999999973
603.67 0.26670000000000016
603.969 0.5334000000000003
604.266 0.3166999999999973
604.563 0.3999999999999986
604.862 0.366699999999998
605.159 0.366699999999998
605.458 0.34999999999999787
605.755 0.3833999999999982
606.054 0.4333999999999989
606.351 0.3833999999999982
606.65 0.3166999999999973
606.946 0.29999999999999716
607.243 0.41669999999999874
607.542 0.366699999999998
607.839 0.3833999999999982
608.138 0.34999999999999787
608.435 0.4833999999999996
608.732 0.34999999999999787
609.03 0.3833999999999982
609.327 0.41669999999999874
609.626 0.29999999999999716
609.923 0.5499999999999972
610.22 0.3999999999999986
610.518 0.4833999999999996
610.815 0.3833999999999982
611.114 0.34999999999999787
611.411 0.4833999999999996
611.707 0.34999999999999787
612.006 0.41669999999999874
612.303 0.5833999999999975
612.601 0.3999999999999986
612.898 0.4499999999999993
613.195 0.5167000000000002
613.493 0.5833999999999975
613.79 0.4833999999999996
614.087 0.5334000000000003
614.385 0.3999999999999986
614.682 0.41669999999999874
614.979 0.4499999999999993
615.277 0.4833999999999996
615.574 0.5167000000000002
615.87 0.5
616.169 0.29999999999999716
616.466 0.5
616.764 0.4333999999999989
617.061 0.4833999999999996
617.357 0.3999999999999986
617.656 0.5334000000000003
617.952 0.366699999999998
618.249 0.34999999999999787
618.545 0.29999999999999716
618.844 0.4833999999999996
619.14 0.366699999999998
619.437 0.366699999999998
619.735 0.3166999999999973
620.032 0.366699999999998
620.328 0.21669999999999945
620.626 0.3833999999999982
620.923 0.41669999999999874
621.219 0.34999999999999787
621.518 0.3166999999999973
621.814 0.1999999999999993
622.11 0.34999999999999787
622.407 0.3833999999999982
622.705 0.3833999999999982
623.002 0.2834000000000003
623.298 0.3333999999999975
623.594 0.366699999999998
623.893 0.46669999999999945
624.189 0.2333999999999996
624.485 0.29999999999999716
624.784 0.34999999999999787
625.08 0.25
625.376 0.3999999999999986
625.672 0.21669999999999945
625.971 0.34999999999999787
626.267 0.3999999999999986
626.563 0.3333999999999975
626.859 0.366699999999998
627.158 0.2834000000000003
627.454 0.41669999999999874
627.75 0.3833999999999982
628.046 0.1999999999999993
628.342 0.3999999999999986
628.641 0.1833999999999989
628.937 0.26670000000000016
629.233 0.3333999999999975
629.529 0.25
629.827 0.4333999999999989
630.123 0.29999999999999716
630.419 0.29999999999999716
630.715 0.366699999999998
631.011 0.29999999999999716
631.31 0.2834000000000003
631.606 0.3833999999999982
631.902 0.1999999999999993
632.198 0.3833999999999982
632.494 0.3166999999999973
632.792 0.3333999999999975
633.088 0.3166999999999973
633.384 0.29999999999999716
633.68 0.3833999999999982
633.976 0.2834000000000003
634.272 0.3833999999999982
634.57 0.3333999999999975
634.866 0.3833999999999982
635.162 0.366699999999998
635.458 0.3166999999999973
635.754 0.2834000000000003
636.05 0.2834000000000003
636.347 0.34999999999999787
636.643 0.4499999999999993
636.939 0.4333999999999989
637.235 0.26670000000000016
637.531 0.34999999999999787
637.827 0.3833999999999982
638.123 0.26670000000000016
638.421 0.29999999999999716
638.716 0.366699999999998
639.012 0.21669999999999945
639.308 0.4499999999999993
639.604 0.2834000000000003
639.9 0.3333999999999975
640.195 0.3999999999999986
640.491 0.29999999999999716
640.789 0.3333999999999975
641.085 0.3999999999999986
641.381 0.26670000000000016
641.676 0.366699999999998
641.972 0.3166999999999973
642.268 0.3333999999999975
642.563 0.3833999999999982
642.859 0.1999999999999993
643.155 0.3166999999999973
643.451 0.2834000000000003
643.746 0.3999999999999986
644.044 0.3833999999999982
644.34 0.3166999999999973
644.635 0.3333999999999975
644.931 0.29999999999999716
645.227 0.34999999999999787
645.522 0.3833999999999982
645.818 0.3999999999999986
646.113 0.3166999999999973
646.409 0.29999999999999716
646.704 0.34999999999999787
647.0 0.26670000000000016
647.296 0.25
647.591 0.26670000000000016
647.887 0.366699999999998
648.182 0.34999999999999787
648.478 0.3833999999999982
648.773 0.3999999999999986
649.069 0.34999999999999787
649.366 0.2834000000000003
649.662 0.41669999999999874
649.957 0.4499999999999993
650.253 0.4333999999999989
650.548 0.3833999999999982
650.844 0.366699999999998
651.139 0.3833999999999982
651.434 0.29999999999999716
651.73 0.4333999999999989
652.025 0.46669999999999945
652.321 0.366699999999998
652.616 0.34999999999999787
652.911 0.4499999999999993
653.207 0.26670000000000016
653.502 0.4333999999999989
653.797 0.3166999999999973
654.093 0.3833999999999982
654.388 0.3333999999999975
654.683 0.5
654.979 0.3999999999999986
655.274 0.29999999999999716
655.567 0.5
655.863 0.3333999999999975
656.158 0.41669999999999874
656.453 0.5499999999999972
656.748 0.5167000000000002
657.044 0.4833999999999996
657.339 0.5167000000000002
657.634 0.5999999999999979
657.929 0.46669999999999945
658.224 0.41669999999999874
658.52 0.5999999999999979
658.815 0.4499999999999993
659.11 0.6499999999999986
659.405 0.5666999999999973
659.7 0.7166999999999994
659.995 0.616699999999998
660.291 0.5833999999999975
660.586 0.6333999999999982
660.879 0.6999999999999993
661.174 0.6666999999999987
661.469 0.7667000000000002
661.764 0.3999999999999986
662.059 0.5833999999999975
662.354 0.5666999999999973
662.649 0.7667000000000002
662.944 0.6666999999999987
663.239 0.5334000000000003
663.534 0.5833999999999975
663.83 0.5499999999999972
664.122 0.46669999999999945
664.417 0.5499999999999972
664.713 0.5999999999999979
665.008 0.5167000000000002
665.302 0.5167000000000002
665.597 0.5833999999999975
665.892 0.5334000000000003
666.187 0.5334000000000003
666.48 0.4833999999999996
666.775 0.46669999999999945
667.07 0.41669999999999874
667.365 0.5
667.66 0.4499999999999993
667.955 0.3833999999999982
668.25 0.41669999999999874
668.542 0.46669999999999945
668.837 0.3999999999999986
669.132 0.3333999999999975
669.427 0.4333999999999989
669.722 0.4333999999999989
670.017 0.34999999999999787
670.31 0.41669999999999874
670.604 0.4833999999999996
670.899 0.366699999999998
671.194 0.3999999999999986
671.489 0.46669999999999945
671.783 0.41669999999999874
672.076 0.366699999999998
672.371 0.3999999999999986
672.666 0.46669999999999945
672.96 0.34999999999999787
673.255 0.3833999999999982
673.548 0.3833999999999982
673.842 0.3333999999999975
674.137 0.366699999999998
674.432 0.3833999999999982
674.727 0.41669999999999874
675.019 0.3333999999999975
675.314 0.366699999999998
675.608 0.3333999999999975
675.903 0.3833999999999982
676.196 0.29999999999999716
676.49 0.3999999999999986
676.785 0.2834000000000003
677.079 0.3833999999999982
677.374 0.3333999999999975
677.667 0.2834000000000003
677.961 0.25
678.256 0.366699999999998
678.55 0.366699999999998
678.843 0.41669999999999874
679.137 0.46669999999999945
679.432 0.2834000000000003
679.726 0.3166999999999973
680.019 0.21669999999999945
680.313 0.3833999999999982
680.608 0.21669999999999945
680.902 0.2834000000000003
681.195 0.34999999999999787
681.489 0.34999999999999787
681.784 0.3999999999999986
682.076 0.29999999999999716
682.37 0.366699999999998
682.665 0.41669999999999874
682.959 0.34999999999999787
683.252 0.34999999999999787
683.546 0.3166999999999973
683.84 0.2333999999999996
684.133 0.29999999999999716
684.427 0.25
684.721 0.34999999999999787
685.014 0.4833999999999996
685.308 0.3166999999999973
685.602 0.26670000000000016
685.895 0.34999999999999787
686.189 0.2834000000000003
686.483 0.29999999999999716
686.778 0.29999999999999716
687.07 0.3833999999999982
687.364 0.2834000000000003
687.658 0.34999999999999787
687.951 0.3833999999999982
688.245 0.34999999999999787
688.537 0.41669999999999874
688.831 0.25
689.125 0.3333999999999975
689.418 0.3166999999999973
689.712 0.26670000000000016
690.006 0.1999999999999993
690.298 0.3166999999999973
690.592 0.366699999999998
690.886 0.3333999999999975
691.178 0.366699999999998
691.473 0.21669999999999945
691.767 0.2834000000000003
692.059 0.41669999999999874
692.353 0.3833999999999982
692.645 0.3999999999999986
692.939 0.2333999999999996
693.233 0.34999999999999787
693.525 0.29999999999999716
693.819 0.2333999999999996
694.111 0.4333999999999989
694.405 0.366699999999998
694.699 0.26670000000000016
694.991 0.3333999999999975
695.285 0.3833999999999982
695.577 0.4333999999999989
695.871 0.25
696.165 0.29999999999999716
696.457 0.3999999999999986
696.751 0.3333999999999975
697.043 0.3166999999999973
697.337 0.3333999999999975
697.629 0.34999999999999787
697.923 0.34999999999999787
698.217 0.3166999999999973
698.509 0.41669999999999874
698.802 0.2834000000000003
699.094 0.3166999999999973
699.388 0.3833999999999982
699.68 0.34999999999999787
699.974 0.3333999999999975
700.266 0.3999999999999986
700.56 0.3166999999999973
700.853 0.2834000000000003
701.145 0.3999999999999986
701.439 0.3166999999999973
701.731 0.29999999999999716
702.025 0.4333999999999989
702.316 0.29999999999999716
702.61 0.3333999999999975
702.902 0.3833999999999982
703.196 0.26670000000000016
703.487 0.25
703.781 0.26670000000000016
704.073 0.3333999999999975
704.367 0.3166999999999973
704.658 0.25
704.952 0.21669999999999945
705.244 0.366699999999998
705.537 0.26670000000000016
705.829 0.3833999999999982
706.122 0.3333999999999975
706.414 0.4499999999999993
706.708 0.29999999999999716
706.999 0.2333999999999996
707.293 0.34999999999999787
