# Created: 2019-11-28 13:05:44.780328
# rshift intensity
76.1738 0.25
76.4989 0.283299999999997
76.824 0.25
77.1491 0.09999999999999787
77.4721 0.1999999999999993
77.7972 0.14999999999999858
78.1223 0.13329999999999842
78.4474 0.13329999999999842
78.7724 0.01659999999999684
79.0975 0.11659999999999826
79.4204 0.14999999999999858
79.7454 0.13329999999999842
80.0704 0.21659999999999968
80.3954 0.04999999999999716
80.7204 0.09999999999999787
81.0454 0.04999999999999716
81.3682 0.033299999999997
81.6931 0.11659999999999826
82.0181 0.06659999999999755
82.343 0.09999999999999787
82.6679 0.11659999999999826
82.9907 0.13329999999999842
83.3156 0.06659999999999755
83.6405 0.06659999999999755
83.9654 0.16659999999999897
84.2903 0.06659999999999755
84.613 0.08329999999999771
84.9378 0.11659999999999826
85.2626 0.13329999999999842
85.5875 0.14999999999999858
85.9101 0.033299999999997
86.2349 0.01659999999999684
86.5597 0.033299999999997
86.8845 0.033299999999997
87.2093 0.0
87.5319 0.08329999999999771
87.8566 0.08329999999999771
88.1814 0.13329999999999842
88.5061 0.04999999999999716
88.8286 0.16659999999999897
89.1533 0.09999999999999787
89.478 0.11659999999999826
89.8027 0.11659999999999826
90.1252 0.01659999999999684
90.4499 0.08329999999999771
90.7745 0.08329999999999771
91.0992 0.09999999999999787
91.4216 0.04999999999999716
91.7462 0.06659999999999755
92.0708 0.18329999999999913
92.3954 0.09999999999999787
92.7179 0.06659999999999755
93.0424 0.13329999999999842
93.367 0.04999999999999716
93.6915 0.11659999999999826
94.0139 0.033299999999997
94.3384 0.16659999999999897
94.6629 0.11659999999999826
94.9853 0.033299999999997
95.3098 0.06659999999999755
95.6342 0.08329999999999771
95.9587 0.16659999999999897
96.281 0.11659999999999826
96.6055 0.08329999999999771
96.9299 0.09999999999999787
97.2522 0.04999999999999716
97.5766 0.08329999999999771
97.901 0.08329999999999771
98.2232 0.09999999999999787
98.5476 0.11659999999999826
98.8719 0.11659999999999826
99.1942 0.13329999999999842
99.5185 0.04999999999999716
99.8428 0.04999999999999716
100.165 0.16659999999999897
100.489 0.13329999999999842
100.814 0.04999999999999716
101.136 0.11659999999999826
101.46 0.14999999999999858
101.784 0.11659999999999826
102.106 0.11659999999999826
102.431 0.08329999999999771
102.755 0.06659999999999755
103.077 0.21659999999999968
103.401 0.25
103.725 0.04999999999999716
104.047 0.11659999999999826
104.372 0.08329999999999771
104.696 0.13329999999999842
105.018 0.06659999999999755
105.342 0.06659999999999755
105.666 0.04999999999999716
105.988 0.08329999999999771
106.312 0.16659999999999897
106.634 0.14999999999999858
106.958 0.06659999999999755
107.282 0.16659999999999897
107.604 0.18329999999999913
107.928 0.06659999999999755
108.252 0.08329999999999771
108.574 0.18329999999999913
108.898 0.16659999999999897
109.22 0.06659999999999755
109.544 0.14999999999999858
109.868 0.09999999999999787
110.19 0.04999999999999716
110.514 0.16659999999999897
110.836 0.13329999999999842
111.159 0.04999999999999716
111.483 0.14999999999999858
111.805 0.0
112.129 0.14999999999999858
112.451 0.11659999999999826
112.775 0.06659999999999755
113.096 0.14999999999999858
113.42 0.06659999999999755
113.744 0.06659999999999755
114.066 0.11659999999999826
114.39 0.13329999999999842
114.711 0.06659999999999755
115.035 0.09999999999999787
115.357 0.033299999999997
115.681 0.11659999999999826
116.004 0.06659999999999755
116.326 0.18329999999999913
116.65 0.01659999999999684
116.971 0.18329999999999913
117.295 0.033299999999997
117.617 0.14999999999999858
117.94 0.13329999999999842
118.262 0.08329999999999771
118.586 0.13329999999999842
118.907 0.08329999999999771
119.231 0.18329999999999913
119.554 0.11659999999999826
119.876 0.033299999999997
120.199 0.11659999999999826
120.521 0.04999999999999716
120.845 0.18329999999999913
121.166 0.09999999999999787
121.49 0.16659999999999897
121.811 0.11659999999999826
122.135 0.033299999999997
122.456 0.13329999999999842
122.78 0.21659999999999968
123.101 0.1999999999999993
123.424 0.11659999999999826
123.746 0.1999999999999993
124.069 0.09999999999999787
124.391 0.08329999999999771
124.714 0.01659999999999684
125.035 0.09999999999999787
125.359 0.16659999999999897
125.68 0.16659999999999897
126.004 0.09999999999999787
126.325 0.16659999999999897
126.648 0.13329999999999842
126.97 0.04999999999999716
127.291 0.11659999999999826
127.614 0.14999999999999858
127.935 0.16659999999999897
128.259 0.14999999999999858
128.58 0.06659999999999755
128.903 0.08329999999999771
129.224 0.16659999999999897
129.548 0.13329999999999842
129.869 0.01659999999999684
130.192 0.16659999999999897
130.513 0.13329999999999842
130.834 0.11659999999999826
131.158 0.21659999999999968
131.479 0.11659999999999826
131.802 0.08329999999999771
132.123 0.18329999999999913
132.446 0.08329999999999771
132.767 0.14999999999999858
133.09 0.23329999999999984
133.411 0.06659999999999755
133.733 0.18329999999999913
134.056 0.13329999999999842
134.377 0.13329999999999842
134.7 0.11659999999999826
135.021 0.13329999999999842
135.342 0.11659999999999826
135.665 0.08329999999999771
135.986 0.11659999999999826
136.309 0.0
136.63 0.09999999999999787
136.951 0.04999999999999716
137.274 0.09999999999999787
137.595 0.08329999999999771
137.918 0.09999999999999787
138.238 0.18329999999999913
138.559 0.1999999999999993
138.882 0.033299999999997
139.203 0.09999999999999787
139.526 0.08329999999999771
139.847 0.08329999999999771
140.168 0.16659999999999897
140.491 0.01659999999999684
140.811 0.25
141.132 0.09999999999999787
141.455 0.11659999999999826
141.776 0.14999999999999858
142.097 0.18329999999999913
142.419 0.23329999999999984
142.74 0.18329999999999913
143.061 0.1999999999999993
143.384 0.11659999999999826
143.704 0.16659999999999897
144.027 0.033299999999997
144.348 0.11659999999999826
144.668 0.033299999999997
144.991 0.09999999999999787
145.312 0.11659999999999826
145.632 0.16659999999999897
145.955 0.13329999999999842
146.276 0.13329999999999842
146.596 0.08329999999999771
146.917 0.09999999999999787
147.24 0.14999999999999858
147.56 0.04999999999999716
147.881 0.09999999999999787
148.203 0.09999999999999787
148.524 0.11659999999999826
148.844 0.18329999999999913
149.167 0.04999999999999716
149.487 0.09999999999999787
149.808 0.06659999999999755
150.131 0.08329999999999771
150.451 0.13329999999999842
150.771 0.16659999999999897
151.092 0.13329999999999842
151.414 0.14999999999999858
151.735 0.11659999999999826
152.055 0.21659999999999968
152.378 0.04999999999999716
152.698 0.04999999999999716
153.018 0.11659999999999826
153.339 0.18329999999999913
153.661 0.09999999999999787
153.982 0.09999999999999787
154.302 0.14999999999999858
154.622 0.09999999999999787
154.945 0.16659999999999897
155.265 0.14999999999999858
155.585 0.09999999999999787
155.905 0.11659999999999826
156.228 0.06659999999999755
156.548 0.11659999999999826
156.868 0.13329999999999842
157.188 0.13329999999999842
157.511 0.14999999999999858
157.831 0.14999999999999858
158.151 0.08329999999999771
158.471 0.1999999999999993
158.794 0.09999999999999787
159.114 0.16659999999999897
159.434 0.18329999999999913
159.754 0.08329999999999771
160.074 0.13329999999999842
160.396 0.18329999999999913
160.717 0.14999999999999858
161.037 0.13329999999999842
161.357 0.18329999999999913
161.679 0.13329999999999842
161.999 0.1999999999999993
162.319 0.21659999999999968
162.639 0.11659999999999826
162.959 0.06659999999999755
163.281 0.21659999999999968
163.601 0.18329999999999913
163.921 0.14999999999999858
164.241 0.04999999999999716
164.561 0.11659999999999826
164.881 0.14999999999999858
165.203 0.09999999999999787
165.523 0.18329999999999913
165.843 0.09999999999999787
166.163 0.1999999999999993
166.483 0.21659999999999968
166.803 0.033299999999997
167.125 0.25
167.445 0.18329999999999913
167.764 0.1999999999999993
168.084 0.21659999999999968
168.404 0.16659999999999897
168.724 0.13329999999999842
169.046 0.08329999999999771
169.366 0.1999999999999993
169.685 0.11659999999999826
170.005 0.033299999999997
170.325 0.11659999999999826
170.645 0.21659999999999968
170.964 0.01659999999999684
171.286 0.16659999999999897
171.606 0.11659999999999826
171.926 0.21659999999999968
172.245 0.18329999999999913
172.565 0.09999999999999787
172.885 0.16659999999999897
173.204 0.23329999999999984
173.524 0.21659999999999968
173.846 0.04999999999999716
174.166 0.11659999999999826
174.485 0.13329999999999842
174.805 0.14999999999999858
175.124 0.21659999999999968
175.444 0.08329999999999771
175.764 0.16659999999999897
176.083 0.18329999999999913
176.403 0.11659999999999826
176.722 0.14999999999999858
177.044 0.04999999999999716
177.363 0.08329999999999771
177.683 0.11659999999999826
178.002 0.1999999999999993
178.322 0.08329999999999771
178.641 0.1999999999999993
178.961 0.26659999999999684
179.28 0.26659999999999684
179.6 0.13329999999999842
179.919 0.1999999999999993
180.239 0.08329999999999771
180.558 0.08329999999999771
180.877 0.01659999999999684
181.197 0.09999999999999787
181.516 0.11659999999999826
181.838 0.04999999999999716
182.157 0.11659999999999826
182.476 0.16659999999999897
182.796 0.033299999999997
183.115 0.13329999999999842
183.434 0.09999999999999787
183.754 0.14999999999999858
184.073 0.18329999999999913
184.392 0.06659999999999755
184.712 0.09999999999999787
185.031 0.16659999999999897
185.35 0.11659999999999826
185.669 0.16659999999999897
185.989 0.0
186.308 0.11659999999999826
186.627 0.09999999999999787
186.946 0.18329999999999913
187.265 0.16659999999999897
187.585 0.033299999999997
187.904 0.21659999999999968
188.223 0.14999999999999858
188.542 0.09999999999999787
188.861 0.08329999999999771
189.18 0.09999999999999787
189.499 0.16659999999999897
189.818 0.04999999999999716
190.138 0.11659999999999826
190.457 0.08329999999999771
190.776 0.14999999999999858
191.095 0.11659999999999826
191.414 0.13329999999999842
191.733 0.09999999999999787
192.052 0.11659999999999826
192.371 0.14999999999999858
192.69 0.1999999999999993
193.009 0.04999999999999716
193.328 0.1999999999999993
193.647 0.06659999999999755
193.966 0.14999999999999858
194.285 0.13329999999999842
194.602 0.1999999999999993
194.92 0.13329999999999842
195.239 0.08329999999999771
195.558 0.14999999999999858
195.877 0.08329999999999771
196.196 0.04999999999999716
196.515 0.23329999999999984
196.834 0.16659999999999897
197.153 0.14999999999999858
197.471 0.09999999999999787
197.79 0.09999999999999787
198.109 0.09999999999999787
198.428 0.1999999999999993
198.747 0.09999999999999787
199.065 0.16659999999999897
199.382 0.13329999999999842
199.701 0.16659999999999897
200.02 0.18329999999999913
200.338 0.13329999999999842
200.657 0.16659999999999897
200.976 0.14999999999999858
201.295 0.13329999999999842
201.613 0.16659999999999897
201.932 0.11659999999999826
202.251 0.18329999999999913
202.567 0.08329999999999771
202.886 0.21659999999999968
203.204 0.09999999999999787
203.523 0.16659999999999897
203.842 0.13329999999999842
204.16 0.08329999999999771
204.479 0.13329999999999842
204.797 0.11659999999999826
205.114 0.09999999999999787
205.433 0.13329999999999842
205.751 0.13329999999999842
206.07 0.13329999999999842
206.388 0.11659999999999826
206.707 0.18329999999999913
207.025 0.18329999999999913
207.342 0.14999999999999858
207.66 0.16659999999999897
207.979 0.06659999999999755
208.297 0.08329999999999771
208.615 0.11659999999999826
208.934 0.04999999999999716
209.25 0.16659999999999897
209.569 0.16659999999999897
209.887 0.06659999999999755
210.205 0.14999999999999858
210.524 0.09999999999999787
210.842 0.18329999999999913
211.158 0.11659999999999826
211.477 0.14999999999999858
211.795 0.13329999999999842
212.113 0.18329999999999913
212.432 0.1999999999999993
212.75 0.13329999999999842
213.066 0.16659999999999897
213.385 0.1999999999999993
213.703 0.06659999999999755
214.021 0.21659999999999968
214.339 0.14999999999999858
214.656 0.13329999999999842
214.974 0.13329999999999842
215.292 0.13329999999999842
215.61 0.18329999999999913
215.926 0.09999999999999787
216.245 0.1999999999999993
216.563 0.13329999999999842
216.881 0.1999999999999993
217.199 0.08329999999999771
217.515 0.18329999999999913
217.833 0.13329999999999842
218.151 0.08329999999999771
218.469 0.25
218.785 0.11659999999999826
219.104 0.14999999999999858
219.422 0.26659999999999684
219.74 0.14999999999999858
220.056 0.18329999999999913
220.374 0.23329999999999984
220.692 0.18329999999999913
221.01 0.29999999999999716
221.326 0.21659999999999968
221.644 0.18329999999999913
221.962 0.25
222.28 0.14999999999999858
222.596 0.29999999999999716
222.914 0.14999999999999858
223.232 0.1999999999999993
223.547 0.21659999999999968
223.865 0.11659999999999826
224.183 0.34999999999999787
224.501 0.06659999999999755
224.817 0.23329999999999984
225.135 0.21659999999999968
225.453 0.18329999999999913
225.768 0.18329999999999913
226.086 0.26659999999999684
226.404 0.13329999999999842
226.722 0.21659999999999968
227.038 0.18329999999999913
227.355 0.21659999999999968
227.673 0.1999999999999993
227.989 0.18329999999999913
228.307 0.25
228.625 0.18329999999999913
228.94 0.11659999999999826
229.258 0.11659999999999826
229.576 0.21659999999999968
229.891 0.1999999999999993
230.209 0.18329999999999913
230.527 0.08329999999999771
230.842 0.13329999999999842
231.16 0.283299999999997
231.478 0.14999999999999858
231.793 0.08329999999999771
232.111 0.14999999999999858
232.428 0.1999999999999993
232.744 0.18329999999999913
233.062 0.11659999999999826
233.379 0.13329999999999842
233.695 0.21659999999999968
234.012 0.16659999999999897
234.33 0.14999999999999858
234.645 0.08329999999999771
234.963 0.13329999999999842
235.278 0.21659999999999968
235.596 0.18329999999999913
235.913 0.14999999999999858
236.229 0.11659999999999826
236.546 0.06659999999999755
236.864 0.08329999999999771
237.179 0.11659999999999826
237.497 0.26659999999999684
237.812 0.06659999999999755
238.129 0.1999999999999993
238.447 0.09999999999999787
238.762 0.14999999999999858
239.08 0.18329999999999913
239.395 0.08329999999999771
239.712 0.21659999999999968
240.03 0.08329999999999771
240.345 0.13329999999999842
240.662 0.14999999999999858
240.978 0.11659999999999826
241.295 0.18329999999999913
241.61 0.23329999999999984
241.927 0.18329999999999913
242.245 0.1999999999999993
242.56 0.08329999999999771
242.877 0.14999999999999858
243.192 0.21659999999999968
243.51 0.11659999999999826
243.825 0.23329999999999984
244.142 0.16659999999999897
244.459 0.26659999999999684
244.774 0.09999999999999787
245.092 0.1999999999999993
245.407 0.26659999999999684
245.724 0.26659999999999684
246.039 0.23329999999999984
246.356 0.1999999999999993
246.671 0.29999999999999716
246.988 0.283299999999997
247.303 0.08329999999999771
247.62 0.18329999999999913
247.938 0.21659999999999968
248.253 0.06659999999999755
248.57 0.25
248.885 0.1999999999999993
249.202 0.18329999999999913
249.517 0.283299999999997
249.834 0.16659999999999897
250.149 0.1999999999999993
250.466 0.1999999999999993
250.781 0.23329999999999984
251.098 0.16659999999999897
251.412 0.23329999999999984
251.729 0.14999999999999858
252.044 0.13329999999999842
252.361 0.21659999999999968
252.676 0.25
252.993 0.16659999999999897
253.308 0.29999999999999716
253.625 0.18329999999999913
253.94 0.18329999999999913
254.256 0.23329999999999984
254.571 0.18329999999999913
254.888 0.1999999999999993
255.203 0.21659999999999968
255.518 0.283299999999997
255.834 0.21659999999999968
256.149 0.23329999999999984
256.466 0.1999999999999993
256.781 0.1999999999999993
257.097 0.21659999999999968
257.412 0.13329999999999842
257.729 0.16659999999999897
258.044 0.14999999999999858
258.36 0.13329999999999842
258.675 0.16659999999999897
258.99 0.14999999999999858
259.306 0.3332999999999977
259.621 0.11659999999999826
259.938 0.16659999999999897
260.252 0.29999999999999716
260.569 0.14999999999999858
260.883 0.23329999999999984
261.198 0.18329999999999913
261.515 0.09999999999999787
261.829 0.21659999999999968
262.146 0.13329999999999842
262.46 0.11659999999999826
262.775 0.11659999999999826
263.091 0.08329999999999771
263.406 0.21659999999999968
263.723 0.23329999999999984
264.037 0.09999999999999787
264.354 0.1999999999999993
264.668 0.16659999999999897
264.982 0.14999999999999858
265.299 0.14999999999999858
265.613 0.16659999999999897
265.928 0.13329999999999842
266.244 0.11659999999999826
266.559 0.16659999999999897
266.875 0.13329999999999842
267.189 0.13329999999999842
267.504 0.14999999999999858
267.82 0.16659999999999897
268.134 0.23329999999999984
268.449 0.1999999999999993
268.765 0.18329999999999913
269.079 0.1999999999999993
269.394 0.14999999999999858
269.71 0.21659999999999968
270.024 0.08329999999999771
270.341 0.13329999999999842
270.655 0.14999999999999858
270.969 0.1999999999999993
271.286 0.13329999999999842
271.6 0.13329999999999842
271.914 0.25
272.23 0.1999999999999993
272.544 0.033299999999997
272.859 0.14999999999999858
273.175 0.14999999999999858
273.489 0.25
273.803 0.18329999999999913
274.119 0.21659999999999968
274.433 0.16659999999999897
274.747 0.11659999999999826
275.062 0.25
275.378 0.13329999999999842
275.692 0.23329999999999984
276.006 0.1999999999999993
276.322 0.16659999999999897
276.636 0.25
276.95 0.11659999999999826
277.266 0.16659999999999897
277.58 0.18329999999999913
277.894 0.14999999999999858
278.208 0.29999999999999716
278.524 0.09999999999999787
278.838 0.14999999999999858
279.152 0.1999999999999993
279.468 0.14999999999999858
279.782 0.1999999999999993
280.096 0.21659999999999968
280.41 0.13329999999999842
280.726 0.16659999999999897
281.04 0.13329999999999842
281.354 0.283299999999997
281.668 0.26659999999999684
281.983 0.09999999999999787
282.297 0.1999999999999993
282.611 0.09999999999999787
282.925 0.283299999999997
283.241 0.1999999999999993
283.555 0.25
283.868 0.1999999999999993
284.182 0.16659999999999897
284.498 0.26659999999999684
284.812 0.09999999999999787
285.126 0.14999999999999858
285.439 0.08329999999999771
285.753 0.21659999999999968
286.069 0.29999999999999716
286.383 0.13329999999999842
286.696 0.16659999999999897
287.01 0.18329999999999913
287.326 0.16659999999999897
287.639 0.1999999999999993
287.953 0.25
288.267 0.18329999999999913
288.58 0.18329999999999913
288.896 0.13329999999999842
289.21 0.283299999999997
289.523 0.13329999999999842
289.837 0.18329999999999913
290.15 0.14999999999999858
290.466 0.13329999999999842
290.78 0.16659999999999897
291.093 0.14999999999999858
291.407 0.11659999999999826
291.72 0.21659999999999968
292.034 0.25
292.349 0.14999999999999858
292.663 0.13329999999999842
292.976 0.14999999999999858
293.29 0.25
293.603 0.18329999999999913
293.917 0.26659999999999684
294.232 0.18329999999999913
294.546 0.14999999999999858
294.859 0.21659999999999968
295.172 0.283299999999997
295.486 0.1999999999999993
295.799 0.1999999999999993
296.113 0.16659999999999897
296.428 0.1999999999999993
296.741 0.283299999999997
297.055 0.21659999999999968
297.368 0.18329999999999913
297.681 0.1999999999999993
297.995 0.09999999999999787
298.308 0.1999999999999993
298.621 0.11659999999999826
298.937 0.13329999999999842
299.25 0.21659999999999968
299.563 0.14999999999999858
299.876 0.23329999999999984
300.19 0.11659999999999826
300.503 0.09999999999999787
300.816 0.16659999999999897
301.129 0.21659999999999968
301.442 0.29999999999999716
301.756 0.14999999999999858
302.071 0.13329999999999842
302.384 0.29999999999999716
302.697 0.21659999999999968
303.01 0.11659999999999826
303.323 0.283299999999997
303.637 0.23329999999999984
303.95 0.08329999999999771
304.263 0.16659999999999897
304.576 0.1999999999999993
304.889 0.18329999999999913
305.202 0.23329999999999984
305.515 0.26659999999999684
305.828 0.16659999999999897
306.141 0.23329999999999984
306.456 0.18329999999999913
306.769 0.26659999999999684
307.082 0.18329999999999913
307.395 0.06659999999999755
307.708 0.21659999999999968
308.021 0.14999999999999858
308.334 0.14999999999999858
308.647 0.1999999999999993
308.96 0.13329999999999842
309.273 0.1999999999999993
309.586 0.25
309.899 0.26659999999999684
310.212 0.23329999999999984
310.525 0.21659999999999968
310.838 0.21659999999999968
311.15 0.18329999999999913
311.463 0.13329999999999842
311.776 0.21659999999999968
312.089 0.16659999999999897
312.402 0.26659999999999684
312.715 0.31659999999999755
313.027 0.21659999999999968
313.34 0.25
313.653 0.13329999999999842
313.966 0.13329999999999842
314.278 0.18329999999999913
314.591 0.21659999999999968
314.904 0.06659999999999755
315.217 0.14999999999999858
315.529 0.25
315.842 0.09999999999999787
316.155 0.13329999999999842
316.467 0.13329999999999842
316.78 0.18329999999999913
317.093 0.283299999999997
317.405 0.13329999999999842
317.718 0.14999999999999858
318.031 0.23329999999999984
318.343 0.14999999999999858
318.656 0.25
318.969 0.14999999999999858
319.281 0.18329999999999913
319.592 0.23329999999999984
319.904 0.08329999999999771
320.217 0.29999999999999716
320.529 0.21659999999999968
320.842 0.18329999999999913
321.154 0.1999999999999993
321.467 0.13329999999999842
321.779 0.16659999999999897
322.092 0.09999999999999787
322.404 0.21659999999999968
322.717 0.21659999999999968
323.029 0.16659999999999897
323.342 0.21659999999999968
323.654 0.25
323.965 0.21659999999999968
324.277 0.23329999999999984
324.589 0.1999999999999993
324.902 0.18329999999999913
325.214 0.23329999999999984
325.527 0.25
325.839 0.16659999999999897
326.151 0.16659999999999897
326.464 0.14999999999999858
326.776 0.09999999999999787
327.086 0.18329999999999913
327.399 0.31659999999999755
327.711 0.14999999999999858
328.023 0.21659999999999968
328.335 0.23329999999999984
328.648 0.29999999999999716
328.96 0.25
329.27 0.3332999999999977
329.582 0.29999999999999716
329.895 0.25
330.207 0.3999999999999986
330.519 0.34999999999999787
330.831 0.31659999999999755
331.143 0.23329999999999984
331.454 0.26659999999999684
331.766 0.31659999999999755
332.078 0.3332999999999977
332.39 0.23329999999999984
332.702 0.29999999999999716
333.014 0.283299999999997
333.326 0.31659999999999755
333.636 0.25
333.948 0.26659999999999684
334.261 0.1999999999999993
334.573 0.1999999999999993
334.885 0.18329999999999913
335.195 0.23329999999999984
335.507 0.283299999999997
335.819 0.31659999999999755
336.131 0.25
336.443 0.25
336.753 0.26659999999999684
337.065 0.18329999999999913
337.377 0.06659999999999755
337.689 0.1999999999999993
338.001 0.36659999999999826
338.31 0.18329999999999913
338.622 0.23329999999999984
338.934 0.283299999999997
339.246 0.16659999999999897
339.558 0.283299999999997
339.868 0.25
340.18 0.31659999999999755
340.492 0.25
340.804 0.18329999999999913
341.113 0.25
341.425 0.14999999999999858
341.737 0.23329999999999984
342.049 0.283299999999997
342.361 0.13329999999999842
342.67 0.18329999999999913
342.982 0.21659999999999968
343.294 0.23329999999999984
343.606 0.23329999999999984
343.915 0.21659999999999968
344.227 0.18329999999999913
344.539 0.21659999999999968
344.849 0.283299999999997
345.16 0.26659999999999684
345.472 0.283299999999997
345.784 0.26659999999999684
346.093 0.29999999999999716
346.405 0.31659999999999755
346.717 0.31659999999999755
347.028 0.18329999999999913
347.338 0.25
347.649 0.23329999999999984
347.961 0.3332999999999977
348.271 0.23329999999999984
348.582 0.25
348.894 0.25
349.205 0.23329999999999984
349.515 0.29999999999999716
349.826 0.21659999999999968
350.138 0.14999999999999858
350.447 0.3332999999999977
350.759 0.14999999999999858
351.07 0.3332999999999977
351.38 0.18329999999999913
351.691 0.23329999999999984
352.003 0.29999999999999716
352.312 0.14999999999999858
352.624 0.31659999999999755
352.935 0.29999999999999716
353.245 0.3332999999999977
353.556 0.1999999999999993
353.867 0.1999999999999993
354.177 0.36659999999999826
354.488 0.25
354.799 0.29999999999999716
355.109 0.29999999999999716
355.42 0.16659999999999897
355.732 0.18329999999999913
356.041 0.283299999999997
356.352 0.18329999999999913
356.663 0.31659999999999755
356.973 0.18329999999999913
357.284 0.3332999999999977
357.593 0.1999999999999993
357.905 0.18329999999999913
358.216 0.1999999999999993
358.525 0.11659999999999826
358.836 0.23329999999999984
359.147 0.34999999999999787
359.457 0.21659999999999968
359.768 0.11659999999999826
360.077 0.26659999999999684
360.388 0.1999999999999993
360.699 0.18329999999999913
361.008 0.29999999999999716
361.32 0.18329999999999913
361.629 0.18329999999999913
361.94 0.21659999999999968
362.251 0.18329999999999913
362.56 0.23329999999999984
362.871 0.18329999999999913
363.18 0.23329999999999984
363.491 0.21659999999999968
363.8 0.13329999999999842
364.111 0.16659999999999897
364.422 0.26659999999999684
364.731 0.21659999999999968
365.042 0.21659999999999968
365.351 0.31659999999999755
365.662 0.1999999999999993
365.971 0.283299999999997
366.282 0.13329999999999842
366.593 0.23329999999999984
366.902 0.21659999999999968
367.213 0.1999999999999993
367.522 0.23329999999999984
367.833 0.21659999999999968
368.142 0.21659999999999968
368.453 0.18329999999999913
368.762 0.13329999999999842
369.073 0.3332999999999977
369.381 0.18329999999999913
369.692 0.13329999999999842
370.001 0.11659999999999826
370.312 0.29999999999999716
370.623 0.283299999999997
370.932 0.31659999999999755
371.242 0.21659999999999968
371.551 0.18329999999999913
371.862 0.29999999999999716
372.171 0.16659999999999897
372.482 0.08329999999999771
372.79 0.25
373.101 0.21659999999999968
373.41 0.23329999999999984
373.721 0.26659999999999684
374.029 0.14999999999999858
374.34 0.21659999999999968
374.649 0.26659999999999684
374.959 0.283299999999997
375.268 0.21659999999999968
375.577 0.283299999999997
375.887 0.3332999999999977
376.196 0.14999999999999858
376.506 0.34999999999999787
376.815 0.16659999999999897
377.126 0.16659999999999897
377.434 0.21659999999999968
377.745 0.13329999999999842
378.053 0.1999999999999993
378.364 0.25
378.672 0.23329999999999984
378.983 0.25
379.292 0.23329999999999984
379.6 0.34999999999999787
379.911 0.13329999999999842
380.219 0.25
380.53 0.25
380.838 0.18329999999999913
381.148 0.29999999999999716
381.457 0.29999999999999716
381.767 0.23329999999999984
382.076 0.25
382.384 0.26659999999999684
382.695 0.18329999999999913
383.003 0.36659999999999826
383.313 0.26659999999999684
383.622 0.283299999999997
383.93 0.21659999999999968
384.24 0.25
384.549 0.14999999999999858
384.859 0.29999999999999716
385.167 0.283299999999997
385.476 0.34999999999999787
385.786 0.21659999999999968
386.094 0.31659999999999755
386.405 0.31659999999999755
386.713 0.26659999999999684
387.021 0.29999999999999716
387.331 0.25
387.64 0.3332999999999977
387.948 0.18329999999999913
388.258 0.23329999999999984
388.566 0.14999999999999858
388.877 0.3332999999999977
389.185 0.1999999999999993
389.493 0.23329999999999984
389.803 0.25
390.111 0.18329999999999913
390.419 0.36659999999999826
390.729 0.25
391.038 0.26659999999999684
391.346 0.283299999999997
391.656 0.25
391.964 0.34999999999999787
392.272 0.29999999999999716
392.582 0.3332999999999977
392.89 0.29999999999999716
393.198 0.18329999999999913
393.508 0.34999999999999787
393.816 0.18329999999999913
394.124 0.16659999999999897
394.434 0.18329999999999913
394.742 0.25
395.05 0.3832999999999984
395.36 0.29999999999999716
395.668 0.283299999999997
395.976 0.31659999999999755
396.286 0.23329999999999984
396.594 0.23329999999999984
396.902 0.283299999999997
397.21 0.283299999999997
397.52 0.29999999999999716
397.828 0.29999999999999716
398.135 0.283299999999997
398.445 0.23329999999999984
398.753 0.26659999999999684
399.061 0.283299999999997
399.369 0.1999999999999993
399.679 0.3999999999999986
399.987 0.14999999999999858
400.294 0.283299999999997
400.604 0.29999999999999716
400.912 0.1999999999999993
401.22 0.21659999999999968
401.527 0.1999999999999993
401.837 0.3332999999999977
402.145 0.29999999999999716
402.453 0.26659999999999684
402.76 0.3332999999999977
403.07 0.29999999999999716
403.378 0.31659999999999755
403.686 0.16659999999999897
403.993 0.3999999999999986
404.303 0.13329999999999842
404.611 0.25
404.918 0.29999999999999716
405.226 0.31659999999999755
405.533 0.36659999999999826
405.843 0.31659999999999755
406.151 0.26659999999999684
406.458 0.3832999999999984
406.766 0.34999999999999787
407.076 0.14999999999999858
407.383 0.26659999999999684
407.691 0.283299999999997
407.998 0.25
408.306 0.29999999999999716
408.615 0.29999999999999716
408.923 0.3832999999999984
409.23 0.36659999999999826
409.538 0.34999999999999787
409.845 0.31659999999999755
410.153 0.283299999999997
410.462 0.3332999999999977
410.77 0.3332999999999977
411.077 0.36659999999999826
411.384 0.26659999999999684
411.692 0.3332999999999977
412.001 0.29999999999999716
412.309 0.3332999999999977
412.616 0.41659999999999897
412.923 0.34999999999999787
413.231 0.41659999999999897
413.538 0.48329999999999984
413.845 0.36659999999999826
414.155 0.36659999999999826
414.462 0.3832999999999984
414.769 0.4499999999999993
415.077 0.34999999999999787
415.384 0.3332999999999977
415.691 0.3999999999999986
415.999 0.5832999999999977
416.308 0.533299999999997
416.615 0.3832999999999984
416.922 0.4665999999999997
417.23 0.5499999999999972
417.537 0.48329999999999984
417.844 0.5499999999999972
418.151 0.7165999999999997
418.458 0.5
418.768 0.6832999999999991
419.075 0.5165999999999968
419.382 0.7165999999999997
419.689 0.6165999999999983
419.996 0.7332999999999998
420.303 0.6999999999999993
420.61 0.7165999999999997
420.918 0.8665999999999983
421.225 0.8499999999999979
421.532 0.9665999999999997
421.841 1.0832999999999977
422.148 0.8999999999999986
422.455 1.1499999999999986
422.762 1.1832999999999991
423.069 1.3165999999999976
423.376 1.3499999999999979
423.683 1.5499999999999972
423.99 1.3165999999999976
424.297 1.3832999999999984
424.604 1.5999999999999979
424.911 1.3499999999999979
425.218 1.4832999999999998
425.525 1.5499999999999972
425.832 1.5665999999999976
426.139 1.8165999999999976
426.446 1.5165999999999968
426.753 1.6165999999999983
427.061 1.3499999999999979
427.368 1.4832999999999998
427.675 1.533299999999997
427.982 1.5499999999999972
428.289 1.3665999999999983
428.596 1.416599999999999
428.903 1.3332999999999977
429.209 1.3165999999999976
429.516 1.1165999999999983
429.823 1.0832999999999977
430.13 1.1332999999999984
430.437 0.9499999999999993
430.743 0.8165999999999976
431.05 0.8499999999999979
431.357 0.8499999999999979
431.664 0.8832999999999984
431.97 0.75
432.277 0.8832999999999984
432.584 0.783299999999997
432.891 0.6165999999999983
433.197 0.75
433.504 0.5
433.811 0.75
434.117 0.666599999999999
434.424 0.5499999999999972
434.731 0.5665999999999976
435.037 0.5665999999999976
435.344 0.666599999999999
435.65 0.5665999999999976
435.957 0.3999999999999986
436.262 0.41659999999999897
436.568 0.4665999999999997
436.875 0.48329999999999984
437.181 0.3832999999999984
437.488 0.41659999999999897
437.794 0.5832999999999977
438.101 0.3832999999999984
438.407 0.3999999999999986
438.714 0.34999999999999787
439.02 0.533299999999997
439.327 0.3832999999999984
439.633 0.3832999999999984
439.94 0.3332999999999977
440.246 0.34999999999999787
440.553 0.34999999999999787
440.859 0.23329999999999984
441.163 0.31659999999999755
441.47 0.3832999999999984
441.776 0.43329999999999913
442.083 0.283299999999997
442.389 0.3832999999999984
442.695 0.41659999999999897
443.002 0.3832999999999984
443.308 0.283299999999997
443.614 0.36659999999999826
443.921 0.34999999999999787
444.225 0.43329999999999913
444.531 0.41659999999999897
444.838 0.29999999999999716
445.144 0.3332999999999977
445.45 0.3832999999999984
445.757 0.36659999999999826
446.063 0.36659999999999826
446.369 0.283299999999997
446.675 0.283299999999997
446.979 0.26659999999999684
447.286 0.29999999999999716
447.592 0.4499999999999993
447.898 0.26659999999999684
448.204 0.43329999999999913
448.51 0.4665999999999997
448.817 0.3832999999999984
449.121 0.48329999999999984
449.427 0.3999999999999986
449.733 0.34999999999999787
450.039 0.41659999999999897
450.345 0.3999999999999986
450.651 0.5
450.955 0.31659999999999755
451.261 0.34999999999999787
451.568 0.34999999999999787
451.874 0.3999999999999986
452.18 0.43329999999999913
452.486 0.3999999999999986
452.79 0.31659999999999755
453.096 0.29999999999999716
453.402 0.25
453.708 0.36659999999999826
454.014 0.43329999999999913
454.318 0.16659999999999897
454.624 0.3999999999999986
454.93 0.31659999999999755
455.236 0.3999999999999986
455.541 0.3332999999999977
455.845 0.283299999999997
456.151 0.36659999999999826
456.457 0.3332999999999977
456.763 0.4665999999999997
457.067 0.29999999999999716
457.373 0.25
457.679 0.36659999999999826
457.985 0.25
458.29 0.3332999999999977
458.594 0.1999999999999993
458.9 0.16659999999999897
459.206 0.31659999999999755
459.512 0.283299999999997
459.815 0.21659999999999968
460.121 0.29999999999999716
460.427 0.3832999999999984
460.733 0.26659999999999684
461.036 0.36659999999999826
461.342 0.23329999999999984
461.648 0.31659999999999755
461.954 0.23329999999999984
462.257 0.41659999999999897
462.563 0.283299999999997
462.869 0.283299999999997
463.172 0.34999999999999787
463.478 0.41659999999999897
463.784 0.283299999999997
464.089 0.25
464.393 0.34999999999999787
464.699 0.31659999999999755
465.004 0.21659999999999968
465.308 0.29999999999999716
465.613 0.31659999999999755
465.919 0.41659999999999897
466.225 0.23329999999999984
466.528 0.283299999999997
466.834 0.3832999999999984
467.139 0.23329999999999984
467.443 0.25
467.748 0.1999999999999993
468.054 0.3999999999999986
468.357 0.25
468.663 0.3832999999999984
468.968 0.3832999999999984
469.272 0.283299999999997
469.577 0.29999999999999716
469.883 0.21659999999999968
470.186 0.29999999999999716
470.492 0.26659999999999684
470.797 0.34999999999999787
471.1 0.3332999999999977
471.406 0.283299999999997
471.711 0.34999999999999787
472.014 0.36659999999999826
472.32 0.29999999999999716
472.625 0.3832999999999984
472.929 0.29999999999999716
473.234 0.3332999999999977
473.539 0.3332999999999977
473.843 0.31659999999999755
474.148 0.3332999999999977
474.451 0.283299999999997
474.756 0.23329999999999984
475.062 0.43329999999999913
475.365 0.34999999999999787
475.67 0.29999999999999716
475.973 0.31659999999999755
476.279 0.4499999999999993
476.584 0.3832999999999984
476.887 0.3832999999999984
477.192 0.5499999999999972
477.498 0.43329999999999913
477.801 0.4665999999999997
478.106 0.6499999999999986
478.409 0.5665999999999976
478.714 0.7999999999999972
479.017 0.7332999999999998
479.322 0.666599999999999
479.628 0.6165999999999983
479.931 0.5999999999999979
480.236 0.783299999999997
480.539 0.8165999999999976
480.844 0.8499999999999979
481.147 0.8832999999999984
481.452 0.75
481.757 0.7999999999999972
482.06 0.783299999999997
482.365 0.8832999999999984
482.668 0.75
482.973 0.75
483.276 0.6999999999999993
483.581 0.7999999999999972
483.884 0.8832999999999984
484.189 0.6332999999999984
484.494 0.5999999999999979
484.797 0.5832999999999977
485.102 0.41659999999999897
485.405 0.3999999999999986
485.71 0.3999999999999986
486.013 0.4499999999999993
486.318 0.36659999999999826
486.621 0.36659999999999826
486.925 0.43329999999999913
487.228 0.34999999999999787
487.533 0.31659999999999755
487.836 0.4499999999999993
488.141 0.23329999999999984
488.444 0.26659999999999684
488.748 0.43329999999999913
489.051 0.25
489.356 0.34999999999999787
489.659 0.3332999999999977
489.964 0.26659999999999684
490.266 0.3332999999999977
490.571 0.21659999999999968
490.874 0.26659999999999684
491.179 0.26659999999999684
491.481 0.283299999999997
491.786 0.29999999999999716
492.089 0.29999999999999716
492.393 0.36659999999999826
492.696 0.18329999999999913
493.001 0.26659999999999684
493.303 0.31659999999999755
493.606 0.25
493.911 0.34999999999999787
494.213 0.29999999999999716
494.518 0.3832999999999984
494.821 0.25
495.125 0.29999999999999716
495.428 0.283299999999997
495.732 0.3332999999999977
496.035 0.29999999999999716
496.337 0.283299999999997
496.642 0.26659999999999684
496.945 0.34999999999999787
497.249 0.21659999999999968
497.552 0.21659999999999968
497.856 0.3332999999999977
498.159 0.4665999999999997
498.461 0.26659999999999684
498.766 0.283299999999997
499.068 0.3332999999999977
499.372 0.16659999999999897
499.675 0.23329999999999984
499.977 0.26659999999999684
500.282 0.26659999999999684
500.584 0.21659999999999968
500.889 0.14999999999999858
501.191 0.41659999999999897
501.493 0.25
501.798 0.25
502.1 0.21659999999999968
502.402 0.26659999999999684
502.707 0.3332999999999977
503.009 0.29999999999999716
503.314 0.23329999999999984
503.616 0.283299999999997
503.918 0.14999999999999858
504.222 0.23329999999999984
504.525 0.26659999999999684
504.827 0.29999999999999716
505.131 0.23329999999999984
505.433 0.25
505.736 0.34999999999999787
506.04 0.36659999999999826
506.342 0.25
506.646 0.34999999999999787
506.949 0.26659999999999684
507.251 0.34999999999999787
507.555 0.34999999999999787
507.857 0.16659999999999897
508.159 0.25
508.461 0.1999999999999993
508.766 0.3332999999999977
509.068 0.1999999999999993
509.37 0.283299999999997
509.674 0.29999999999999716
509.976 0.14999999999999858
510.278 0.29999999999999716
510.582 0.21659999999999968
510.884 0.3332999999999977
511.186 0.25
511.49 0.26659999999999684
511.792 0.16659999999999897
512.094 0.21659999999999968
512.396 0.3332999999999977
512.701 0.18329999999999913
513.003 0.23329999999999984
513.305 0.29999999999999716
513.609 0.34999999999999787
513.91 0.283299999999997
514.212 0.18329999999999913
514.514 0.31659999999999755
514.818 0.1999999999999993
515.12 0.26659999999999684
515.422 0.283299999999997
515.724 0.31659999999999755
516.028 0.21659999999999968
516.33 0.18329999999999913
516.632 0.09999999999999787
516.934 0.26659999999999684
517.237 0.25
517.539 0.16659999999999897
517.841 0.34999999999999787
518.143 0.23329999999999984
518.447 0.21659999999999968
518.749 0.21659999999999968
519.05 0.25
519.352 0.25
519.656 0.11659999999999826
519.958 0.3332999999999977
520.26 0.18329999999999913
520.561 0.21659999999999968
520.863 0.29999999999999716
521.167 0.34999999999999787
521.468 0.41659999999999897
521.77 0.31659999999999755
522.072 0.23329999999999984
522.376 0.23329999999999984
522.677 0.41659999999999897
522.979 0.21659999999999968
523.281 0.3332999999999977
523.582 0.283299999999997
523.884 0.25
524.187 0.26659999999999684
524.489 0.26659999999999684
524.791 0.31659999999999755
525.092 0.23329999999999984
525.394 0.31659999999999755
525.697 0.3332999999999977
525.999 0.29999999999999716
526.301 0.34999999999999787
526.602 0.31659999999999755
526.904 0.3332999999999977
527.205 0.34999999999999787
527.507 0.43329999999999913
527.81 0.36659999999999826
528.112 0.25
528.413 0.34999999999999787
528.715 0.25
529.016 0.31659999999999755
529.318 0.283299999999997
529.619 0.3332999999999977
529.922 0.36659999999999826
530.224 0.283299999999997
530.525 0.31659999999999755
530.827 0.3332999999999977
531.128 0.283299999999997
531.429 0.29999999999999716
531.731 0.3332999999999977
532.032 0.29999999999999716
532.336 0.23329999999999984
532.637 0.25
532.938 0.21659999999999968
533.24 0.3332999999999977
533.541 0.21659999999999968
533.842 0.31659999999999755
534.143 0.3332999999999977
534.445 0.29999999999999716
534.746 0.18329999999999913
535.047 0.36659999999999826
535.351 0.26659999999999684
535.652 0.25
535.953 0.29999999999999716
536.254 0.3332999999999977
536.555 0.21659999999999968
536.857 0.23329999999999984
537.158 0.34999999999999787
537.459 0.3332999999999977
537.76 0.34999999999999787
538.061 0.25
538.362 0.36659999999999826
538.664 0.283299999999997
538.965 0.34999999999999787
539.266 0.36659999999999826
539.567 0.25
539.868 0.23329999999999984
540.169 0.34999999999999787
540.472 0.3332999999999977
540.773 0.34999999999999787
541.074 0.26659999999999684
541.375 0.31659999999999755
541.677 0.29999999999999716
541.978 0.283299999999997
542.279 0.23329999999999984
542.58 0.31659999999999755
542.881 0.34999999999999787
543.182 0.25
543.483 0.23329999999999984
543.784 0.3332999999999977
544.085 0.283299999999997
544.385 0.36659999999999826
544.686 0.3832999999999984
544.987 0.36659999999999826
545.288 0.18329999999999913
545.589 0.3332999999999977
545.89 0.34999999999999787
546.191 0.533299999999997
546.492 0.3332999999999977
546.793 0.25
547.094 0.31659999999999755
547.394 0.21659999999999968
547.695 0.3832999999999984
547.996 0.25
548.297 0.34999999999999787
548.596 0.4665999999999997
548.897 0.43329999999999913
549.197 0.283299999999997
549.498 0.4499999999999993
549.799 0.3332999999999977
550.1 0.43329999999999913
550.4 0.4499999999999993
550.701 0.3999999999999986
551.002 0.34999999999999787
551.303 0.5
551.603 0.3832999999999984
551.904 0.34999999999999787
552.205 0.5
552.505 0.3999999999999986
552.806 0.3832999999999984
553.107 0.36659999999999826
553.407 0.48329999999999984
553.706 0.533299999999997
554.007 0.26659999999999684
554.307 0.5832999999999977
554.608 0.48329999999999984
554.909 0.5665999999999976
555.209 0.5665999999999976
555.51 0.5
555.81 0.5999999999999979
556.111 0.6332999999999984
556.411 0.4499999999999993
556.71 0.5832999999999977
557.01 0.5
557.311 0.6165999999999983
557.612 0.4665999999999997
557.912 0.533299999999997
558.213 0.5165999999999968
558.513 0.48329999999999984
558.813 0.3832999999999984
559.112 0.3999999999999986
559.412 0.3999999999999986
559.713 0.4665999999999997
560.013 0.533299999999997
560.314 0.34999999999999787
560.614 0.31659999999999755
560.914 0.36659999999999826
561.213 0.34999999999999787
561.513 0.3999999999999986
561.814 0.3832999999999984
562.114 0.36659999999999826
562.414 0.36659999999999826
562.715 0.26659999999999684
563.015 0.26659999999999684
563.313 0.31659999999999755
563.614 0.4499999999999993
563.914 0.3332999999999977
564.214 0.3832999999999984
564.515 0.3999999999999986
564.813 0.34999999999999787
565.113 0.283299999999997
565.413 0.3999999999999986
565.714 0.3332999999999977
566.014 0.29999999999999716
566.312 0.3832999999999984
566.612 0.36659999999999826
566.912 0.23329999999999984
567.213 0.283299999999997
567.513 0.29999999999999716
567.811 0.34999999999999787
568.111 0.25
568.411 0.34999999999999787
568.712 0.21659999999999968
569.012 0.29999999999999716
569.31 0.31659999999999755
569.61 0.43329999999999913
569.91 0.29999999999999716
570.21 0.26659999999999684
570.508 0.26659999999999684
570.808 0.41659999999999897
571.108 0.31659999999999755
571.408 0.36659999999999826
571.706 0.4499999999999993
572.006 0.31659999999999755
572.306 0.26659999999999684
572.607 0.283299999999997
572.904 0.31659999999999755
573.204 0.29999999999999716
573.505 0.34999999999999787
573.805 0.25
574.102 0.26659999999999684
574.402 0.29999999999999716
574.702 0.41659999999999897
575.002 0.21659999999999968
575.3 0.3332999999999977
575.6 0.26659999999999684
575.9 0.16659999999999897
576.198 0.3332999999999977
576.498 0.23329999999999984
576.798 0.283299999999997
577.098 0.14999999999999858
577.395 0.21659999999999968
577.695 0.29999999999999716
577.995 0.25
578.293 0.29999999999999716
578.593 0.23329999999999984
578.893 0.3332999999999977
579.19 0.16659999999999897
579.49 0.1999999999999993
579.79 0.3332999999999977
580.088 0.14999999999999858
580.387 0.3832999999999984
580.687 0.36659999999999826
580.985 0.21659999999999968
581.285 0.25
581.584 0.31659999999999755
581.882 0.18329999999999913
582.182 0.25
582.482 0.18329999999999913
582.779 0.26659999999999684
583.079 0.25
583.378 0.1999999999999993
583.676 0.26659999999999684
583.976 0.25
584.275 0.23329999999999984
584.573 0.14999999999999858
584.873 0.23329999999999984
585.17 0.16659999999999897
585.47 0.23329999999999984
585.769 0.23329999999999984
586.067 0.26659999999999684
586.367 0.34999999999999787
586.666 0.283299999999997
586.964 0.31659999999999755
587.263 0.29999999999999716
587.561 0.23329999999999984
587.86 0.31659999999999755
588.16 0.3832999999999984
588.457 0.26659999999999684
588.757 0.23329999999999984
589.054 0.26659999999999684
589.354 0.29999999999999716
589.653 0.14999999999999858
589.951 0.26659999999999684
590.25 0.283299999999997
590.547 0.43329999999999913
590.847 0.3332999999999977
591.144 0.29999999999999716
591.444 0.283299999999997
591.743 0.18329999999999913
592.04 0.18329999999999913
592.34 0.21659999999999968
592.637 0.283299999999997
592.936 0.25
593.234 0.18329999999999913
593.533 0.14999999999999858
593.832 0.29999999999999716
594.13 0.29999999999999716
594.429 0.283299999999997
594.726 0.36659999999999826
595.026 0.283299999999997
595.323 0.25
595.622 0.31659999999999755
595.919 0.25
596.219 0.26659999999999684
596.516 0.3332999999999977
596.815 0.25
597.112 0.16659999999999897
597.411 0.21659999999999968
597.709 0.31659999999999755
598.008 0.23329999999999984
598.305 0.3332999999999977
598.604 0.1999999999999993
598.901 0.23329999999999984
599.2 0.25
599.497 0.31659999999999755
599.797 0.3332999999999977
600.094 0.25
600.393 0.1999999999999993
600.69 0.21659999999999968
600.989 0.14999999999999858
601.286 0.25
601.585 0.21659999999999968
601.882 0.25
602.181 0.3332999999999977
602.478 0.31659999999999755
602.777 0.283299999999997
603.074 0.23329999999999984
603.373 0.283299999999997
603.67 0.3332999999999977
603.969 0.1999999999999993
604.266 0.29999999999999716
604.563 0.1999999999999993
604.862 0.29999999999999716
605.159 0.1999999999999993
605.458 0.3832999999999984
605.755 0.36659999999999826
606.054 0.31659999999999755
606.351 0.41659999999999897
606.65 0.23329999999999984
606.946 0.25
607.243 0.3832999999999984
607.542 0.29999999999999716
607.839 0.31659999999999755
608.138 0.31659999999999755
608.435 0.3332999999999977
608.732 0.26659999999999684
609.03 0.16659999999999897
609.327 0.3999999999999986
609.626 0.3332999999999977
609.923 0.36659999999999826
610.22 0.3832999999999984
610.518 0.3999999999999986
610.815 0.3999999999999986
611.114 0.25
611.411 0.34999999999999787
611.707 0.48329999999999984
612.006 0.29999999999999716
612.303 0.4499999999999993
612.601 0.31659999999999755
612.898 0.31659999999999755
613.195 0.533299999999997
613.493 0.36659999999999826
613.79 0.5832999999999977
614.087 0.43329999999999913
614.385 0.4665999999999997
614.682 0.36659999999999826
614.979 0.34999999999999787
615.277 0.5
615.574 0.31659999999999755
615.87 0.29999999999999716
616.169 0.43329999999999913
616.466 0.36659999999999826
616.764 0.34999999999999787
617.061 0.31659999999999755
617.357 0.34999999999999787
617.656 0.43329999999999913
617.952 0.31659999999999755
618.249 0.34999999999999787
618.545 0.34999999999999787
618.844 0.283299999999997
619.14 0.23329999999999984
619.437 0.3999999999999986
619.735 0.3832999999999984
620.032 0.34999999999999787
620.328 0.25
620.626 0.29999999999999716
620.923 0.16659999999999897
621.219 0.25
621.518 0.29999999999999716
621.814 0.5
622.11 0.3332999999999977
622.407 0.1999999999999993
622.705 0.34999999999999787
623.002 0.21659999999999968
623.298 0.29999999999999716
623.594 0.283299999999997
623.893 0.283299999999997
624.189 0.283299999999997
624.485 0.25
624.784 0.29999999999999716
625.08 0.31659999999999755
625.376 0.34999999999999787
625.672 0.34999999999999787
625.971 0.283299999999997
626.267 0.3332999999999977
626.563 0.08329999999999771
626.859 0.18329999999999913
627.158 0.29999999999999716
627.454 0.1999999999999993
627.75 0.23329999999999984
628.046 0.21659999999999968
628.342 0.4499999999999993
628.641 0.31659999999999755
628.937 0.31659999999999755
629.233 0.26659999999999684
629.529 0.26659999999999684
629.827 0.23329999999999984
630.123 0.41659999999999897
630.419 0.31659999999999755
630.715 0.3332999999999977
631.011 0.31659999999999755
631.31 0.26659999999999684
631.606 0.26659999999999684
631.902 0.29999999999999716
632.198 0.08329999999999771
632.494 0.29999999999999716
632.792 0.3332999999999977
633.088 0.283299999999997
633.384 0.23329999999999984
633.68 0.36659999999999826
633.976 0.21659999999999968
634.272 0.283299999999997
634.57 0.36659999999999826
634.866 0.26659999999999684
635.162 0.26659999999999684
635.458 0.31659999999999755
635.754 0.283299999999997
636.05 0.23329999999999984
636.347 0.1999999999999993
636.643 0.3999999999999986
636.939 0.26659999999999684
637.235 0.283299999999997
637.531 0.16659999999999897
637.827 0.283299999999997
638.123 0.29999999999999716
638.421 0.36659999999999826
638.716 0.31659999999999755
639.012 0.3332999999999977
639.308 0.283299999999997
639.604 0.48329999999999984
639.9 0.21659999999999968
640.195 0.26659999999999684
640.491 0.43329999999999913
640.789 0.31659999999999755
641.085 0.23329999999999984
641.381 0.34999999999999787
641.676 0.29999999999999716
641.972 0.26659999999999684
642.268 0.3332999999999977
642.563 0.25
642.859 0.43329999999999913
643.155 0.26659999999999684
643.451 0.23329999999999984
643.746 0.26659999999999684
644.044 0.21659999999999968
644.34 0.29999999999999716
644.635 0.31659999999999755
644.931 0.36659999999999826
645.227 0.34999999999999787
645.522 0.23329999999999984
645.818 0.31659999999999755
646.113 0.41659999999999897
646.409 0.23329999999999984
646.704 0.1999999999999993
647.0 0.21659999999999968
647.296 0.31659999999999755
647.591 0.29999999999999716
647.887 0.1999999999999993
648.182 0.3332999999999977
648.478 0.3832999999999984
648.773 0.18329999999999913
649.069 0.34999999999999787
649.366 0.34999999999999787
649.662 0.31659999999999755
649.957 0.26659999999999684
650.253 0.1999999999999993
650.548 0.31659999999999755
650.844 0.31659999999999755
651.139 0.3832999999999984
651.434 0.283299999999997
651.73 0.29999999999999716
652.025 0.43329999999999913
652.321 0.26659999999999684
652.616 0.36659999999999826
652.911 0.3832999999999984
653.207 0.25
653.502 0.41659999999999897
653.797 0.3332999999999977
654.093 0.36659999999999826
654.388 0.5499999999999972
654.683 0.1999999999999993
654.979 0.4665999999999997
655.274 0.3832999999999984
655.567 0.3999999999999986
655.863 0.4665999999999997
656.158 0.3332999999999977
656.453 0.5665999999999976
656.748 0.41659999999999897
657.044 0.5
657.339 0.4499999999999993
657.634 0.4499999999999993
657.929 0.4665999999999997
658.224 0.43329999999999913
658.52 0.533299999999997
658.815 0.5165999999999968
659.11 0.3832999999999984
659.405 0.5499999999999972
659.7 0.41659999999999897
659.995 0.6332999999999984
660.291 0.5832999999999977
660.586 0.5165999999999968
660.879 0.4665999999999997
661.174 0.783299999999997
661.469 0.533299999999997
661.764 0.4665999999999997
662.059 0.48329999999999984
662.354 0.5665999999999976
662.649 0.43329999999999913
662.944 0.5
663.239 0.5499999999999972
663.534 0.5
663.83 0.4499999999999993
664.122 0.4665999999999997
664.417 0.5665999999999976
664.713 0.533299999999997
665.008 0.3999999999999986
665.302 0.43329999999999913
665.597 0.5499999999999972
665.892 0.5165999999999968
666.187 0.43329999999999913
666.48 0.41659999999999897
666.775 0.41659999999999897
667.07 0.48329999999999984
667.365 0.4665999999999997
667.66 0.5165999999999968
667.955 0.36659999999999826
668.25 0.3832999999999984
668.542 0.5
668.837 0.41659999999999897
669.132 0.36659999999999826
669.427 0.3999999999999986
669.722 0.41659999999999897
670.017 0.31659999999999755
670.31 0.3832999999999984
670.604 0.29999999999999716
670.899 0.29999999999999716
671.194 0.3999999999999986
671.489 0.21659999999999968
671.783 0.3832999999999984
672.076 0.3332999999999977
672.371 0.3332999999999977
672.666 0.41659999999999897
672.96 0.3832999999999984
673.255 0.36659999999999826
673.548 0.18329999999999913
673.842 0.26659999999999684
674.137 0.34999999999999787
674.432 0.31659999999999755
674.727 0.3832999999999984
675.019 0.283299999999997
675.314 0.31659999999999755
675.608 0.34999999999999787
675.903 0.21659999999999968
676.196 0.283299999999997
676.49 0.43329999999999913
676.785 0.31659999999999755
677.079 0.36659999999999826
677.374 0.26659999999999684
677.667 0.3332999999999977
677.961 0.29999999999999716
678.256 0.26659999999999684
678.55 0.3332999999999977
678.843 0.41659999999999897
679.137 0.23329999999999984
679.432 0.21659999999999968
679.726 0.26659999999999684
680.019 0.16659999999999897
680.313 0.29999999999999716
680.608 0.29999999999999716
680.902 0.21659999999999968
681.195 0.3832999999999984
681.489 0.26659999999999684
681.784 0.29999999999999716
682.076 0.41659999999999897
682.37 0.21659999999999968
682.665 0.34999999999999787
682.959 0.23329999999999984
683.252 0.31659999999999755
683.546 0.29999999999999716
683.84 0.3332999999999977
684.133 0.34999999999999787
684.427 0.4665999999999997
684.721 0.3332999999999977
685.014 0.23329999999999984
685.308 0.3832999999999984
685.602 0.283299999999997
685.895 0.1999999999999993
686.189 0.21659999999999968
686.483 0.25
686.778 0.23329999999999984
687.07 0.21659999999999968
687.364 0.41659999999999897
687.658 0.23329999999999984
687.951 0.31659999999999755
688.245 0.21659999999999968
688.537 0.29999999999999716
688.831 0.34999999999999787
689.125 0.29999999999999716
689.418 0.29999999999999716
689.712 0.16659999999999897
690.006 0.3332999999999977
690.298 0.23329999999999984
690.592 0.23329999999999984
690.886 0.23329999999999984
691.178 0.1999999999999993
691.473 0.23329999999999984
691.767 0.3332999999999977
692.059 0.29999999999999716
692.353 0.25
692.645 0.26659999999999684
692.939 0.31659999999999755
693.233 0.31659999999999755
693.525 0.25
693.819 0.29999999999999716
694.111 0.23329999999999984
694.405 0.23329999999999984
694.699 0.31659999999999755
694.991 0.26659999999999684
695.285 0.29999999999999716
695.577 0.11659999999999826
695.871 0.26659999999999684
696.165 0.31659999999999755
696.457 0.1999999999999993
696.751 0.34999999999999787
697.043 0.16659999999999897
697.337 0.29999999999999716
697.629 0.14999999999999858
697.923 0.21659999999999968
698.217 0.31659999999999755
698.509 0.25
698.802 0.23329999999999984
699.094 0.25
699.388 0.21659999999999968
699.68 0.26659999999999684
699.974 0.23329999999999984
700.266 0.25
700.56 0.1999999999999993
700.853 0.3999999999999986
701.145 0.23329999999999984
701.439 0.283299999999997
701.731 0.21659999999999968
702.025 0.26659999999999684
702.316 0.21659999999999968
702.61 0.21659999999999968
702.902 0.1999999999999993
703.196 0.283299999999997
703.487 0.26659999999999684
703.781 0.3332999999999977
704.073 0.21659999999999968
704.367 0.1999999999999993
704.658 0.25
704.952 0.26659999999999684
705.244 0.283299999999997
705.537 0.26659999999999684
705.829 0.23329999999999984
706.122 0.29999999999999716
706.414 0.21659999999999968
706.708 0.41659999999999897
706.999 0.29999999999999716
707.293 0.23329999999999984
