# Created: 2019-11-28 13:05:44.496002
# rshift intensity
76.1738 0.23329999999999984
76.4989 0.21659999999999968
76.824 0.28330000000000055
77.1491 0.2666000000000004
77.4721 0.2666000000000004
77.7972 0.1999999999999993
78.1223 0.1999999999999993
78.4474 0.11659999999999826
78.7724 0.21659999999999968
79.0975 0.1999999999999993
79.4204 0.14999999999999858
79.7454 0.11659999999999826
80.0704 0.13329999999999842
80.3954 0.03330000000000055
80.7204 0.11659999999999826
81.0454 0.10494409176832065
81.3682 0.13550934609921583
81.6931 0.14559851934630075
82.0181 0.14122236744397654
82.343 0.1312298187164629
82.6679 0.14212491004602157
82.9907 0.12579757800989455
83.3156 0.14645867835274728
83.6405 0.13329999999999842
83.9654 0.09999999999999787
84.2903 0.11659999999999826
84.613 0.18329999999999913
84.9378 0.13329999999999842
85.2626 0.08329999999999771
85.5875 0.06659999999999755
85.9101 0.16659999999999897
86.2349 0.11659999999999826
86.5597 0.06659999999999755
86.8845 0.09999999999999787
87.2093 0.16659999999999897
87.5319 0.11659999999999826
87.8566 0.21659999999999968
88.1814 0.25
88.5061 0.14999999999999858
88.8286 0.11659999999999826
89.1533 0.11659999999999826
89.478 0.0
89.8027 0.09999999999999787
90.1252 0.08329999999999771
90.4499 0.06659999999999755
90.7745 0.11659999999999826
91.0992 0.03330000000000055
91.4216 0.14999999999999858
91.7462 0.21659999999999968
92.0708 0.16659999999999897
92.3954 0.13329999999999842
92.7179 0.14999999999999858
93.0424 0.18329999999999913
93.367 0.08329999999999771
93.6915 0.05000000000000071
94.0139 0.25
94.3384 0.13329999999999842
94.6629 0.14999999999999858
94.9853 0.18329999999999913
95.3098 0.16659999999999897
95.6342 0.09999999999999787
95.9587 0.09999999999999787
96.281 0.06659999999999755
96.6055 0.16659999999999897
96.9299 0.14999999999999858
97.2522 0.1999999999999993
97.5766 0.09999999999999787
97.901 0.11659999999999826
98.2232 0.09999999999999787
98.5476 0.11659999999999826
98.8719 0.13329999999999842
99.1942 0.1999999999999993
99.5185 0.13329999999999842
99.8428 0.14999999999999858
100.165 0.05000000000000071
100.489 0.18329999999999913
100.814 0.11659999999999826
101.136 0.14999999999999858
101.46 0.18329999999999913
101.784 0.05000000000000071
102.106 0.08329999999999771
102.431 0.13329999999999842
102.755 0.14999999999999858
103.077 0.13329999999999842
103.401 0.21659999999999968
103.725 0.18329999999999913
104.047 0.18329999999999913
104.372 0.16659999999999897
104.696 0.14999999999999858
105.018 0.1999999999999993
105.342 0.21659999999999968
105.666 0.16659999999999897
105.988 0.21659999999999968
106.312 0.1999999999999993
106.634 0.1999999999999993
106.958 0.16659999999999897
107.282 0.14999999999999858
107.604 0.18329999999999913
107.928 0.21659999999999968
108.252 0.23329999999999984
108.574 0.16659999999999897
108.898 0.06659999999999755
109.22 0.09999999999999787
109.544 0.18329999999999913
109.868 0.1999999999999993
110.19 0.1999999999999993
110.514 0.16659999999999897
110.836 0.11659999999999826
111.159 0.08329999999999771
111.483 0.14999999999999858
111.805 0.16659999999999897
112.129 0.14999999999999858
112.451 0.18329999999999913
112.775 0.14999999999999858
113.096 0.18329999999999913
113.42 0.14999999999999858
113.744 0.11659999999999826
114.066 0.18329999999999913
114.39 0.08329999999999771
114.711 0.1999999999999993
115.035 0.16659999999999897
115.357 0.18329999999999913
115.681 0.1999999999999993
116.004 0.14999999999999858
116.326 0.21659999999999968
116.65 0.18329999999999913
116.971 0.14999999999999858
117.295 0.1999999999999993
117.617 0.21659999999999968
117.94 0.13329999999999842
118.262 0.18329999999999913
118.586 0.13329999999999842
118.907 0.18329999999999913
119.231 0.18329999999999913
119.554 0.16659999999999897
119.876 0.11659999999999826
120.199 0.14999999999999858
120.521 0.1999999999999993
120.845 0.21659999999999968
121.166 0.21659999999999968
121.49 0.08329999999999771
121.811 0.16659999999999897
122.135 0.14999999999999858
122.456 0.18329999999999913
122.78 0.14999999999999858
123.101 0.09999999999999787
123.424 0.06659999999999755
123.746 0.14999999999999858
124.069 0.08329999999999771
124.391 0.21659999999999968
124.714 0.06659999999999755
125.035 0.18329999999999913
125.359 0.08329999999999771
125.68 0.06659999999999755
126.004 0.18329999999999913
126.325 0.13329999999999842
126.648 0.016600000000000392
126.97 0.11659999999999826
127.291 0.1999999999999993
127.614 0.14999999999999858
127.935 0.1999999999999993
128.259 0.16659999999999897
128.58 0.13329999999999842
128.903 0.16659999999999897
129.224 0.18329999999999913
129.548 0.16659999999999897
129.869 0.2666000000000004
130.192 0.18329999999999913
130.513 0.14999999999999858
130.834 0.3000000000000007
131.158 0.11659999999999826
131.479 0.18329999999999913
131.802 0.16659999999999897
132.123 0.1999999999999993
132.446 0.1999999999999993
132.767 0.14999999999999858
133.09 0.23329999999999984
133.411 0.11659999999999826
133.733 0.18329999999999913
134.056 0.09999999999999787
134.377 0.05000000000000071
134.7 0.1999999999999993
135.021 0.16659999999999897
135.342 0.14999999999999858
135.665 0.21659999999999968
135.986 0.14999999999999858
136.309 0.18329999999999913
136.63 0.23329999999999984
136.951 0.14999999999999858
137.274 0.16659999999999897
137.595 0.11659999999999826
137.918 0.1999999999999993
138.238 0.14999999999999858
138.559 0.16659999999999897
138.882 0.16659999999999897
139.203 0.13329999999999842
139.526 0.18329999999999913
139.847 0.05000000000000071
140.168 0.09999999999999787
140.491 0.21659999999999968
140.811 0.11659999999999826
141.132 0.16659999999999897
141.455 0.08329999999999771
141.776 0.28330000000000055
142.097 0.21659999999999968
142.419 0.08329999999999771
142.74 0.16659999999999897
143.061 0.16659999999999897
143.384 0.13329999999999842
143.704 0.18329999999999913
144.027 0.11659999999999826
144.348 0.14999999999999858
144.668 0.11659999999999826
144.991 0.23329999999999984
145.312 0.18329999999999913
145.632 0.16659999999999897
145.955 0.1999999999999993
146.276 0.13329999999999842
146.596 0.18329999999999913
146.917 0.18329999999999913
147.24 0.16659999999999897
147.56 0.09999999999999787
147.881 0.13329999999999842
148.203 0.13329999999999842
148.524 0.18329999999999913
148.844 0.13329999999999842
149.167 0.25
149.487 0.03330000000000055
149.808 0.21659999999999968
150.131 0.18329999999999913
150.451 0.18329999999999913
150.771 0.1999999999999993
151.092 0.11659999999999826
151.414 0.21659999999999968
151.735 0.14999999999999858
152.055 0.16659999999999897
152.378 0.13329999999999842
152.698 0.09999999999999787
153.018 0.23329999999999984
153.339 0.13329999999999842
153.661 0.11659999999999826
153.982 0.06659999999999755
154.302 0.14999999999999858
154.622 0.16659999999999897
154.945 0.16659999999999897
155.265 0.11659999999999826
155.585 0.1999999999999993
155.905 0.09999999999999787
156.228 0.14999999999999858
156.548 0.23329999999999984
156.868 0.21659999999999968
157.188 0.2666000000000004
157.511 0.09999999999999787
157.831 0.18329999999999913
158.151 0.03330000000000055
158.471 0.13329999999999842
158.794 0.18329999999999913
159.114 0.14999999999999858
159.434 0.16659999999999897
159.754 0.09999999999999787
160.074 0.21659999999999968
160.396 0.13329999999999842
160.717 0.14999999999999858
161.037 0.13329999999999842
161.357 0.18329999999999913
161.679 0.16659999999999897
161.999 0.21659999999999968
162.319 0.13329999999999842
162.639 0.16659999999999897
162.959 0.18329999999999913
163.281 0.21659999999999968
163.601 0.13329999999999842
163.921 0.16659999999999897
164.241 0.11659999999999826
164.561 0.16659999999999897
164.881 0.23329999999999984
165.203 0.21659999999999968
165.523 0.16659999999999897
165.843 0.23329999999999984
166.163 0.21659999999999968
166.483 0.3000000000000007
166.803 0.23329999999999984
167.125 0.14999999999999858
167.445 0.16659999999999897
167.764 0.2666000000000004
168.084 0.18329999999999913
168.404 0.13329999999999842
168.724 0.18329999999999913
169.046 0.23329999999999984
169.366 0.1999999999999993
169.685 0.3332999999999977
170.005 0.13329999999999842
170.325 0.16659999999999897
170.645 0.16659999999999897
170.964 0.11659999999999826
171.286 0.25
171.606 0.1999999999999993
171.926 0.23329999999999984
172.245 0.08329999999999771
172.565 0.16659999999999897
172.885 0.21659999999999968
173.204 0.23329999999999984
173.524 0.13329999999999842
173.846 0.14999999999999858
174.166 0.21659999999999968
174.485 0.1999999999999993
174.805 0.2666000000000004
175.124 0.23329999999999984
175.444 0.13329999999999842
175.764 0.25
176.083 0.13329999999999842
176.403 0.18329999999999913
176.722 0.09999999999999787
177.044 0.16659999999999897
177.363 0.14999999999999858
177.683 0.18329999999999913
178.002 0.11659999999999826
178.322 0.11659999999999826
178.641 0.21659999999999968
178.961 0.13329999999999842
179.28 0.23329999999999984
179.6 0.14999999999999858
179.919 0.11659999999999826
180.239 0.14999999999999858
180.558 0.21659999999999968
180.877 0.16659999999999897
181.197 0.1999999999999993
181.516 0.11659999999999826
181.838 0.14999999999999858
182.157 0.11659999999999826
182.476 0.09999999999999787
182.796 0.13329999999999842
183.115 0.28330000000000055
183.434 0.14999999999999858
183.754 0.14999999999999858
184.073 0.1999999999999993
184.392 0.13329999999999842
184.712 0.13329999999999842
185.031 0.1999999999999993
185.35 0.23329999999999984
185.669 0.13329999999999842
185.989 0.1999999999999993
186.308 0.16659999999999897
186.627 0.11659999999999826
186.946 0.11659999999999826
187.265 0.14999999999999858
187.585 0.1999999999999993
187.904 0.21659999999999968
188.223 0.14999999999999858
188.542 0.09999999999999787
188.861 0.23329999999999984
189.18 0.05000000000000071
189.499 0.21659999999999968
189.818 0.1999999999999993
190.138 0.21659999999999968
190.457 0.14999999999999858
190.776 0.13329999999999842
191.095 0.11659999999999826
191.414 0.13329999999999842
191.733 0.14999999999999858
192.052 0.11659999999999826
192.371 0.1999999999999993
192.69 0.09999999999999787
193.009 0.23329999999999984
193.328 0.14999999999999858
193.647 0.14999999999999858
193.966 0.14999999999999858
194.285 0.1999999999999993
194.602 0.18329999999999913
194.92 0.16659999999999897
195.239 0.1999999999999993
195.558 0.14999999999999858
195.877 0.23329999999999984
196.196 0.09999999999999787
196.515 0.18329999999999913
196.834 0.14999999999999858
197.153 0.13329999999999842
197.471 0.18329999999999913
197.79 0.09999999999999787
198.109 0.21659999999999968
198.428 0.23329999999999984
198.747 0.16659999999999897
199.065 0.18329999999999913
199.382 0.25
199.701 0.18329999999999913
200.02 0.14999999999999858
200.338 0.09999999999999787
200.657 0.23329999999999984
200.976 0.23329999999999984
201.295 0.16659999999999897
201.613 0.13329999999999842
201.932 0.21659999999999968
202.251 0.16659999999999897
202.567 0.23329999999999984
202.886 0.18329999999999913
203.204 0.21659999999999968
203.523 0.1999999999999993
203.842 0.13329999999999842
204.16 0.21659999999999968
204.479 0.13329999999999842
204.797 0.21659999999999968
205.114 0.18329999999999913
205.433 0.18329999999999913
205.751 0.21659999999999968
206.07 0.18329999999999913
206.388 0.1999999999999993
206.707 0.14999999999999858
207.025 0.16659999999999897
207.342 0.13329999999999842
207.66 0.16659999999999897
207.979 0.14999999999999858
208.297 0.14999999999999858
208.615 0.25
208.934 0.14999999999999858
209.25 0.21659999999999968
209.569 0.1999999999999993
209.887 0.25
210.205 0.21659999999999968
210.524 0.13329999999999842
210.842 0.18329999999999913
211.158 0.14999999999999858
211.477 0.21659999999999968
211.795 0.16659999999999897
212.113 0.16659999999999897
212.432 0.16659999999999897
212.75 0.13329999999999842
213.066 0.11659999999999826
213.385 0.2666000000000004
213.703 0.06659999999999755
214.021 0.1999999999999993
214.339 0.25
214.656 0.18329999999999913
214.974 0.21659999999999968
215.292 0.16659999999999897
215.61 0.1999999999999993
215.926 0.2666000000000004
216.245 0.1999999999999993
216.563 0.2666000000000004
216.881 0.18329999999999913
217.199 0.16659999999999897
217.515 0.11659999999999826
217.833 0.16659999999999897
218.151 0.21659999999999968
218.469 0.18329999999999913
218.785 0.13329999999999842
219.104 0.21659999999999968
219.422 0.21659999999999968
219.74 0.2666000000000004
220.056 0.25
220.374 0.2666000000000004
220.692 0.21659999999999968
221.01 0.1999999999999993
221.326 0.23329999999999984
221.644 0.21659999999999968
221.962 0.25
222.28 0.14999999999999858
222.596 0.1999999999999993
222.914 0.18329999999999913
223.232 0.23329999999999984
223.547 0.23329999999999984
223.865 0.18329999999999913
224.183 0.18329999999999913
224.501 0.31659999999999755
224.817 0.23329999999999984
225.135 0.18329999999999913
225.453 0.18329999999999913
225.768 0.3000000000000007
226.086 0.1999999999999993
226.404 0.28330000000000055
226.722 0.1999999999999993
227.038 0.16659999999999897
227.355 0.18329999999999913
227.673 0.1999999999999993
227.989 0.23329999999999984
228.307 0.23329999999999984
228.625 0.23329999999999984
228.94 0.16659999999999897
229.258 0.16659999999999897
229.576 0.23329999999999984
229.891 0.25
230.209 0.25
230.527 0.18329999999999913
230.842 0.21659999999999968
231.16 0.16659999999999897
231.478 0.2666000000000004
231.793 0.18329999999999913
232.111 0.3000000000000007
232.428 0.1999999999999993
232.744 0.21659999999999968
233.062 0.25
233.379 0.09999999999999787
233.695 0.1999999999999993
234.012 0.1999999999999993
234.33 0.3332999999999977
234.645 0.14999999999999858
234.963 0.16659999999999897
235.278 0.18329999999999913
235.596 0.1999999999999993
235.913 0.23329999999999984
236.229 0.1999999999999993
236.546 0.1999999999999993
236.864 0.18329999999999913
237.179 0.23329999999999984
237.497 0.18329999999999913
237.812 0.21659999999999968
238.129 0.21659999999999968
238.447 0.21659999999999968
238.762 0.23329999999999984
239.08 0.21659999999999968
239.395 0.18329999999999913
239.712 0.08329999999999771
240.03 0.23329999999999984
240.345 0.16659999999999897
240.662 0.25
240.978 0.28330000000000055
241.295 0.25
241.61 0.2666000000000004
241.927 0.21659999999999968
242.245 0.1999999999999993
242.56 0.3332999999999977
242.877 0.22821470974953328
243.192 0.22601774964766363
243.51 0.22818522986601053
243.825 0.22928510659231094
244.142 0.23366598953341366
244.459 0.2302766032687984
244.774 0.22706697464424153
245.092 0.18329999999999913
245.407 0.21659999999999968
245.724 0.23329999999999984
246.039 0.16659999999999897
246.356 0.28330000000000055
246.671 0.09999999999999787
246.988 0.19703227818284574
247.303 0.20680773378425243
247.62 0.22599742686631075
247.938 0.20037462697640507
248.253 0.2090728194282434
248.57 0.20563267090251358
248.885 0.22242151586754488
249.202 0.3832999999999984
249.517 0.18329999999999913
249.834 0.16659999999999897
250.149 0.25
250.466 0.09999999999999787
250.781 0.1999999999999993
251.098 0.18329999999999913
251.412 0.21659999999999968
251.729 0.18329999999999913
252.044 0.3000000000000007
252.361 0.18329999999999913
252.676 0.3000000000000007
252.993 0.13329999999999842
253.308 0.18329999999999913
253.625 0.25
253.94 0.16659999999999897
254.256 0.2666000000000004
254.571 0.23329999999999984
254.888 0.2666000000000004
255.203 0.21659999999999968
255.518 0.31659999999999755
255.834 0.3832999999999984
256.149 0.11659999999999826
256.466 0.21659999999999968
256.781 0.28330000000000055
257.097 0.28330000000000055
257.412 0.23329999999999984
257.729 0.25
258.044 0.25
258.36 0.2666000000000004
258.675 0.31659999999999755
258.99 0.1999999999999993
259.306 0.14999999999999858
259.621 0.23329999999999984
259.938 0.21659999999999968
260.252 0.25
260.569 0.13329999999999842
260.883 0.2666000000000004
261.198 0.16659999999999897
261.515 0.18329999999999913
261.829 0.2666000000000004
262.146 0.18329999999999913
262.46 0.3000000000000007
262.775 0.18329999999999913
263.091 0.16659999999999897
263.406 0.2666000000000004
263.723 0.08329999999999771
264.037 0.1999999999999993
264.354 0.25
264.668 0.25
264.982 0.28330000000000055
265.299 0.21659999999999968
265.613 0.21659999999999968
265.928 0.25
266.244 0.2666000000000004
266.559 0.31659999999999755
266.875 0.11659999999999826
267.189 0.25
267.504 0.2666000000000004
267.82 0.21659999999999968
268.134 0.18329999999999913
268.449 0.14999999999999858
268.765 0.25
269.079 0.23329999999999984
269.394 0.14999999999999858
269.71 0.18329999999999913
270.024 0.2666000000000004
270.341 0.25
270.655 0.2666000000000004
270.969 0.18329999999999913
271.286 0.31659999999999755
271.6 0.2666000000000004
271.914 0.1999999999999993
272.23 0.13329999999999842
272.544 0.18329999999999913
272.859 0.25
273.175 0.18329999999999913
273.489 0.23329999999999984
273.803 0.11659999999999826
274.119 0.2666000000000004
274.433 0.21659999999999968
274.747 0.14999999999999858
275.062 0.28330000000000055
275.378 0.21659999999999968
275.692 0.16659999999999897
276.006 0.25
276.322 0.28330000000000055
276.636 0.18329999999999913
276.95 0.21659999999999968
277.266 0.28330000000000055
277.58 0.1999999999999993
277.894 0.25
278.208 0.31659999999999755
278.524 0.21659999999999968
278.838 0.1999999999999993
279.152 0.31659999999999755
279.468 0.1999999999999993
279.782 0.18329999999999913
280.096 0.23329999999999984
280.41 0.21659999999999968
280.726 0.1999999999999993
281.04 0.18329999999999913
281.354 0.23329999999999984
281.668 0.2666000000000004
281.983 0.3000000000000007
282.297 0.25
282.611 0.1999999999999993
282.925 0.2666000000000004
283.241 0.21659999999999968
283.555 0.28330000000000055
283.868 0.11659999999999826
284.182 0.25
284.498 0.34999999999999787
284.812 0.3000000000000007
285.126 0.28330000000000055
285.439 0.1999999999999993
285.753 0.25
286.069 0.25
286.383 0.14999999999999858
286.696 0.23329999999999984
287.01 0.14999999999999858
287.326 0.1999999999999993
287.639 0.2666000000000004
287.953 0.1999999999999993
288.267 0.11659999999999826
288.58 0.28330000000000055
288.896 0.2666000000000004
289.21 0.1999999999999993
289.523 0.16659999999999897
289.837 0.21659999999999968
290.15 0.31659999999999755
290.466 0.2666000000000004
290.78 0.16659999999999897
291.093 0.16659999999999897
291.407 0.23329999999999984
291.72 0.14999999999999858
292.034 0.2666000000000004
292.349 0.18329999999999913
292.663 0.1999999999999993
292.976 0.18329999999999913
293.29 0.3000000000000007
293.603 0.1999999999999993
293.917 0.3000000000000007
294.232 0.21659999999999968
294.546 0.1999999999999993
294.859 0.18329999999999913
295.172 0.2666000000000004
295.486 0.25
295.799 0.16659999999999897
296.113 0.18329999999999913
296.428 0.25
296.741 0.16659999999999897
297.055 0.23329999999999984
297.368 0.2666000000000004
297.681 0.23329999999999984
297.995 0.23329999999999984
298.308 0.3000000000000007
298.621 0.266123559023157
298.937 0.2624371017835756
299.25 0.26663909279729836
299.563 0.2666651340794104
299.876 0.2644496575464963
300.19 0.26452058657059396
300.503 0.2624883814451522
300.816 0.23329999999999984
301.129 0.3332999999999977
301.442 0.25
301.756 0.28330000000000055
302.071 0.18329999999999913
302.384 0.23329999999999984
302.697 0.14999999999999858
303.01 0.3000000000000007
303.323 0.21659999999999968
303.637 0.16659999999999897
303.95 0.16659999999999897
304.263 0.11659999999999826
304.576 0.21659999999999968
304.889 0.1999999999999993
305.202 0.18329999999999913
305.515 0.2666000000000004
305.828 0.28330000000000055
306.141 0.21659999999999968
306.456 0.1999999999999993
306.769 0.16659999999999897
307.082 0.2666000000000004
307.395 0.14999999999999858
307.708 0.25
308.021 0.25
308.334 0.14999999999999858
308.647 0.16659999999999897
308.96 0.18329999999999913
309.273 0.25
309.586 0.23329999999999984
309.899 0.28330000000000055
310.212 0.25
310.525 0.18329999999999913
310.838 0.3000000000000007
311.15 0.18329999999999913
311.463 0.13329999999999842
311.776 0.2666000000000004
312.089 0.18329999999999913
312.402 0.1999999999999993
312.715 0.16659999999999897
313.027 0.21659999999999968
313.34 0.1999999999999993
313.653 0.16659999999999897
313.966 0.25
314.278 0.25
314.591 0.2666000000000004
314.904 0.1999999999999993
315.217 0.1999999999999993
315.529 0.3000000000000007
315.842 0.13329999999999842
316.155 0.28330000000000055
316.467 0.3000000000000007
316.78 0.14999999999999858
317.093 0.13329999999999842
317.405 0.18329999999999913
317.718 0.23329999999999984
318.031 0.23329999999999984
318.343 0.13329999999999842
318.656 0.16659999999999897
318.969 0.2666000000000004
319.281 0.31659999999999755
319.592 0.16659999999999897
319.904 0.16659999999999897
320.217 0.28330000000000055
320.529 0.1999999999999993
320.842 0.18329999999999913
321.154 0.21659999999999968
321.467 0.28330000000000055
321.779 0.18329999999999913
322.092 0.3332999999999977
322.404 0.25
322.717 0.1999999999999993
323.029 0.1999999999999993
323.342 0.2666000000000004
323.654 0.18329999999999913
323.965 0.2666000000000004
324.277 0.31659999999999755
324.589 0.1999999999999993
324.902 0.25
325.214 0.28330000000000055
325.527 0.16659999999999897
325.839 0.3000000000000007
326.151 0.28330000000000055
326.464 0.2666000000000004
326.776 0.21659999999999968
327.086 0.1999999999999993
327.399 0.4499999999999993
327.711 0.28330000000000055
328.023 0.3000000000000007
328.335 0.41659999999999897
328.648 0.3999999999999986
328.96 0.34999999999999787
329.27 0.3000000000000007
329.582 0.3832999999999984
329.895 0.25
330.207 0.43329999999999913
330.519 0.3332999999999977
330.831 0.3332999999999977
331.143 0.3999999999999986
331.454 0.3999999999999986
331.766 0.3832999999999984
332.078 0.4499999999999993
332.39 0.34999999999999787
332.702 0.3999999999999986
333.014 0.31659999999999755
333.326 0.3832999999999984
333.636 0.3832999999999984
333.948 0.31659999999999755
334.261 0.36659999999999826
334.573 0.1999999999999993
334.885 0.4499999999999993
335.195 0.25
335.507 0.28330000000000055
335.819 0.2666000000000004
336.131 0.1999999999999993
336.443 0.28330000000000055
336.753 0.3999999999999986
337.065 0.34999999999999787
337.377 0.2666000000000004
337.689 0.18329999999999913
338.001 0.31659999999999755
338.31 0.23329999999999984
338.622 0.3332999999999977
338.934 0.1999999999999993
339.246 0.21659999999999968
339.558 0.25
339.868 0.25
340.18 0.2666000000000004
340.492 0.31659999999999755
340.804 0.14999999999999858
341.113 0.25
341.425 0.18329999999999913
341.737 0.1999999999999993
342.049 0.2666000000000004
342.361 0.31659999999999755
342.67 0.31659999999999755
342.982 0.1999999999999993
343.294 0.3000000000000007
343.606 0.3999999999999986
343.915 0.14999999999999858
344.227 0.3000000000000007
344.539 0.3332999999999977
344.849 0.3000000000000007
345.16 0.4665999999999997
345.472 0.1999999999999993
345.784 0.31659999999999755
346.093 0.2666000000000004
346.405 0.3832999999999984
346.717 0.3000000000000007
347.028 0.2666000000000004
347.338 0.28330000000000055
347.649 0.2666000000000004
347.961 0.28330000000000055
348.271 0.31659999999999755
348.582 0.23329999999999984
348.894 0.25
349.205 0.25
349.515 0.3000000000000007
349.826 0.3000000000000007
350.138 0.28330000000000055
350.447 0.25
350.759 0.25
351.07 0.2666000000000004
351.38 0.28330000000000055
351.691 0.2666000000000004
352.003 0.3000000000000007
352.312 0.18329999999999913
352.624 0.28330000000000055
352.935 0.25
353.245 0.34999999999999787
353.556 0.28330000000000055
353.867 0.13329999999999842
354.177 0.2666000000000004
354.488 0.1999999999999993
354.799 0.2666000000000004
355.109 0.31659999999999755
355.42 0.13329999999999842
355.732 0.3000000000000007
356.041 0.3332999999999977
356.352 0.25
356.663 0.23329999999999984
356.973 0.2666000000000004
357.284 0.25
357.593 0.34999999999999787
357.905 0.23329999999999984
358.216 0.25
358.525 0.25
358.836 0.28330000000000055
359.147 0.14999999999999858
359.457 0.28330000000000055
359.768 0.3000000000000007
360.077 0.21659999999999968
360.388 0.3000000000000007
360.699 0.3000000000000007
361.008 0.3000000000000007
361.32 0.16659999999999897
361.629 0.3000000000000007
361.94 0.2666000000000004
362.251 0.21659999999999968
362.56 0.23329999999999984
362.871 0.3000000000000007
363.18 0.18329999999999913
363.491 0.3832999999999984
363.8 0.25
364.111 0.3000000000000007
364.422 0.41659999999999897
364.731 0.28330000000000055
365.042 0.34999999999999787
365.351 0.3000000000000007
365.662 0.25
365.971 0.41659999999999897
366.282 0.23329999999999984
366.593 0.34999999999999787
366.902 0.21659999999999968
367.213 0.23329999999999984
367.522 0.25
367.833 0.34999999999999787
368.142 0.3332999999999977
368.453 0.09999999999999787
368.762 0.23329999999999984
369.073 0.3000000000000007
369.381 0.3332999999999977
369.692 0.3000000000000007
370.001 0.21659999999999968
370.312 0.23329999999999984
370.623 0.3000000000000007
370.932 0.31659999999999755
371.242 0.3332999999999977
371.551 0.14999999999999858
371.862 0.36659999999999826
372.171 0.28330000000000055
372.482 0.21659999999999968
372.79 0.23329999999999984
373.101 0.21659999999999968
373.41 0.34999999999999787
373.721 0.21659999999999968
374.029 0.3000000000000007
374.34 0.31659999999999755
374.649 0.21659999999999968
374.959 0.3832999999999984
375.268 0.3000000000000007
375.577 0.31659999999999755
375.887 0.31659999999999755
376.196 0.28330000000000055
376.506 0.25
376.815 0.2666000000000004
377.126 0.28330000000000055
377.434 0.34999999999999787
377.745 0.28330000000000055
378.053 0.3000000000000007
378.364 0.31659999999999755
378.672 0.3832999999999984
378.983 0.18329999999999913
379.292 0.3332999999999977
379.6 0.25
379.911 0.3000000000000007
380.219 0.23329999999999984
380.53 0.3000000000000007
380.838 0.3332999999999977
381.148 0.31659999999999755
381.457 0.34999999999999787
381.767 0.2666000000000004
382.076 0.34999999999999787
382.384 0.3000000000000007
382.695 0.4665999999999997
383.003 0.3000000000000007
383.313 0.28330000000000055
383.622 0.2666000000000004
383.93 0.36659999999999826
384.24 0.28330000000000055
384.549 0.2666000000000004
384.859 0.41659999999999897
385.167 0.31659999999999755
385.476 0.28330000000000055
385.786 0.21659999999999968
386.094 0.3000000000000007
386.405 0.43329999999999913
386.713 0.3000000000000007
387.021 0.3999999999999986
387.331 0.34999999999999787
387.64 0.41659999999999897
387.948 0.23329999999999984
388.258 0.36659999999999826
388.566 0.3999999999999986
388.877 0.3332999999999977
389.185 0.3332999999999977
389.493 0.25
389.803 0.31659999999999755
390.111 0.34999999999999787
390.419 0.3000000000000007
390.729 0.3332999999999977
391.038 0.3999999999999986
391.346 0.3832999999999984
391.656 0.23329999999999984
391.964 0.34999999999999787
392.272 0.31659999999999755
392.582 0.31659999999999755
392.89 0.43329999999999913
393.198 0.2666000000000004
393.508 0.34999999999999787
393.816 0.1999999999999993
394.124 0.3000000000000007
394.434 0.3332999999999977
394.742 0.34999999999999787
395.05 0.3000000000000007
395.36 0.2666000000000004
395.668 0.28330000000000055
395.976 0.3332999999999977
396.286 0.4499999999999993
396.594 0.3000000000000007
396.902 0.36659999999999826
397.21 0.2666000000000004
397.52 0.2666000000000004
397.828 0.31659999999999755
398.135 0.14999999999999858
398.445 0.3000000000000007
398.753 0.3332999999999977
399.061 0.28330000000000055
399.369 0.34999999999999787
399.679 0.3000000000000007
399.987 0.31659999999999755
400.294 0.3000000000000007
400.604 0.3332999999999977
400.912 0.36659999999999826
401.22 0.3000000000000007
401.527 0.28330000000000055
401.837 0.36659999999999826
402.145 0.31659999999999755
402.453 0.3000000000000007
402.76 0.3332999999999977
403.07 0.25
403.378 0.2666000000000004
403.686 0.3332999999999977
403.993 0.36659999999999826
404.303 0.28330000000000055
404.611 0.31659999999999755
404.918 0.43329999999999913
405.226 0.2666000000000004
405.533 0.2666000000000004
405.843 0.3332999999999977
406.151 0.3999999999999986
406.458 0.3999999999999986
406.766 0.36659999999999826
407.076 0.41659999999999897
407.383 0.3332999999999977
407.691 0.3999999999999986
407.998 0.31659999999999755
408.306 0.4499999999999993
408.615 0.28330000000000055
408.923 0.36659999999999826
409.23 0.3000000000000007
409.538 0.3332999999999977
409.845 0.31659999999999755
410.153 0.3832999999999984
410.462 0.4499999999999993
410.77 0.4665999999999997
411.077 0.43329999999999913
411.384 0.48329999999999984
411.692 0.5
412.001 0.48329999999999984
412.309 0.34999999999999787
412.616 0.3999999999999986
412.923 0.3832999999999984
413.231 0.41659999999999897
413.538 0.43329999999999913
413.845 0.41659999999999897
414.155 0.4499999999999993
414.462 0.5166000000000004
414.769 0.5
415.077 0.4499999999999993
415.384 0.4499999999999993
415.691 0.3832999999999984
415.999 0.41659999999999897
416.308 0.4499999999999993
416.615 0.4665999999999997
416.922 0.5
417.23 0.6832999999999991
417.537 0.5
417.844 0.6999999999999993
418.151 0.6499999999999986
418.458 0.7332999999999998
418.768 0.6832999999999991
419.075 0.5166000000000004
419.382 0.6499999999999986
419.689 0.6332999999999984
419.996 0.8999999999999986
420.303 0.8165999999999976
420.61 0.8665999999999983
420.918 0.9499999999999993
421.225 1.0665999999999976
421.532 0.9832999999999998
421.841 1.0166000000000004
422.148 1.166599999999999
422.455 1.1165999999999983
422.762 1.2165999999999997
423.069 1.2666000000000004
423.376 1.5166000000000004
423.683 1.3999999999999986
423.99 1.2666000000000004
424.297 1.5166000000000004
424.604 1.4499999999999993
424.911 1.5665999999999976
425.218 1.6499999999999986
425.525 1.4832999999999998
425.832 1.4499999999999993
426.139 1.6999999999999993
426.446 1.6999999999999993
426.753 1.6332999999999984
427.061 1.5665999999999976
427.368 1.5832999999999977
427.675 1.4499999999999993
427.982 1.416599999999999
428.289 1.4332999999999991
428.596 1.5166000000000004
428.903 1.0999999999999979
429.209 1.0500000000000007
429.516 1.1165999999999983
429.823 1.2833000000000006
430.13 1.2332999999999998
430.437 1.0500000000000007
430.743 1.0500000000000007
431.05 0.8665999999999983
431.357 0.8000000000000007
431.664 0.8665999999999983
431.97 1.0665999999999976
432.277 0.8332999999999977
432.584 0.6165999999999983
432.891 0.6832999999999991
433.197 0.6499999999999986
433.504 0.7165999999999997
433.811 0.666599999999999
434.117 0.5665999999999976
434.424 0.6165999999999983
434.731 0.7332999999999998
435.037 0.6165999999999983
435.344 0.5665999999999976
435.65 0.48329999999999984
435.957 0.5999999999999979
436.262 0.5832999999999977
436.568 0.5665999999999976
436.875 0.6499999999999986
437.181 0.3999999999999986
437.488 0.5333000000000006
437.794 0.5333000000000006
438.101 0.5166000000000004
438.407 0.6332999999999984
438.714 0.43329999999999913
439.02 0.3832999999999984
439.327 0.6165999999999983
439.633 0.36659999999999826
439.94 0.48329999999999984
440.246 0.43329999999999913
440.553 0.4499999999999993
440.859 0.41659999999999897
441.163 0.23329999999999984
441.47 0.3832999999999984
441.776 0.3999999999999986
442.083 0.3999999999999986
442.389 0.34999999999999787
442.695 0.36659999999999826
443.002 0.4665999999999997
443.308 0.5166000000000004
443.614 0.41659999999999897
443.921 0.3832999999999984
444.225 0.48329999999999984
444.531 0.3999999999999986
444.838 0.43329999999999913
445.144 0.36659999999999826
445.45 0.34999999999999787
445.757 0.43329999999999913
446.063 0.48329999999999984
446.369 0.41659999999999897
446.675 0.3999999999999986
446.979 0.4665999999999997
447.286 0.36659999999999826
447.592 0.5
447.898 0.3832999999999984
448.204 0.36659999999999826
448.51 0.41659999999999897
448.817 0.3832999999999984
449.121 0.4665999999999997
449.427 0.3999999999999986
449.733 0.3832999999999984
450.039 0.3000000000000007
450.345 0.41659999999999897
450.651 0.5333000000000006
450.955 0.3832999999999984
451.261 0.5832999999999977
451.568 0.5
451.874 0.4499999999999993
452.18 0.41659999999999897
452.486 0.41659999999999897
452.79 0.5500000000000007
453.096 0.4665999999999997
453.402 0.3832999999999984
453.708 0.43329999999999913
454.014 0.4665999999999997
454.318 0.5500000000000007
454.624 0.3999999999999986
454.93 0.41659999999999897
455.236 0.41659999999999897
455.541 0.31659999999999755
455.845 0.3999999999999986
456.151 0.43329999999999913
456.457 0.48329999999999984
456.763 0.48329999999999984
457.067 0.3332999999999977
457.373 0.41659999999999897
457.679 0.3332999999999977
457.985 0.28330000000000055
458.29 0.43329999999999913
458.594 0.3999999999999986
458.9 0.31659999999999755
459.206 0.3000000000000007
459.512 0.25
459.815 0.5333000000000006
460.121 0.36659999999999826
460.427 0.3999999999999986
460.733 0.2666000000000004
461.036 0.3999999999999986
461.342 0.34999999999999787
461.648 0.36659999999999826
461.954 0.3999999999999986
462.257 0.2666000000000004
462.563 0.34999999999999787
462.869 0.34999999999999787
463.172 0.36659999999999826
463.478 0.3999999999999986
463.784 0.3000000000000007
464.089 0.2666000000000004
464.393 0.3999999999999986
464.699 0.43329999999999913
465.004 0.3832999999999984
465.308 0.43329999999999913
465.613 0.36659999999999826
465.919 0.4665999999999997
466.225 0.28330000000000055
466.528 0.34999999999999787
466.834 0.3332999999999977
467.139 0.31659999999999755
467.443 0.31659999999999755
467.748 0.28330000000000055
468.054 0.3999999999999986
468.357 0.34999999999999787
468.663 0.36659999999999826
468.968 0.4665999999999997
469.272 0.36659999999999826
469.577 0.3332999999999977
469.883 0.2666000000000004
470.186 0.3999999999999986
470.492 0.34999999999999787
470.797 0.48329999999999984
471.1 0.43329999999999913
471.406 0.3332999999999977
471.711 0.41659999999999897
472.014 0.3999999999999986
472.32 0.3999999999999986
472.625 0.4499999999999993
472.929 0.36659999999999826
473.234 0.36659999999999826
473.539 0.34999999999999787
473.843 0.48329999999999984
474.148 0.43329999999999913
474.451 0.4499999999999993
474.756 0.36659999999999826
475.062 0.2666000000000004
475.365 0.43329999999999913
475.67 0.41659999999999897
475.973 0.48329999999999984
476.279 0.48329999999999984
476.584 0.3999999999999986
476.887 0.3999999999999986
477.192 0.5333000000000006
477.498 0.5333000000000006
477.801 0.7332999999999998
478.106 0.7165999999999997
478.409 0.8499999999999979
478.714 0.7833000000000006
479.017 0.6832999999999991
479.322 0.7666000000000004
479.628 1.0333000000000006
479.931 0.75
480.236 0.8499999999999979
480.539 1.0
480.844 0.9832999999999998
481.147 0.8499999999999979
481.452 0.8000000000000007
481.757 0.7165999999999997
482.06 0.9499999999999993
482.365 0.7332999999999998
482.668 0.7165999999999997
482.973 0.8165999999999976
483.276 0.7833000000000006
483.581 0.6499999999999986
483.884 0.666599999999999
484.189 0.6999999999999993
484.494 0.5665999999999976
484.797 0.5665999999999976
485.102 0.43329999999999913
485.405 0.5832999999999977
485.71 0.4499999999999993
486.013 0.5166000000000004
486.318 0.3999999999999986
486.621 0.5832999999999977
486.925 0.41659999999999897
487.228 0.2666000000000004
487.533 0.41659999999999897
487.836 0.3999999999999986
488.141 0.5
488.444 0.31659999999999755
488.748 0.3000000000000007
489.051 0.31659999999999755
489.356 0.31659999999999755
489.659 0.36659999999999826
489.964 0.43329999999999913
490.266 0.34999999999999787
490.571 0.31659999999999755
490.874 0.34999999999999787
491.179 0.4499999999999993
491.481 0.3332999999999977
491.786 0.36659999999999826
492.089 0.3832999999999984
492.393 0.34999999999999787
492.696 0.3000000000000007
493.001 0.28330000000000055
493.303 0.3000000000000007
493.606 0.23329999999999984
493.911 0.3832999999999984
494.213 0.2666000000000004
494.518 0.43329999999999913
494.821 0.3000000000000007
495.125 0.41659999999999897
495.428 0.2666000000000004
495.732 0.25
496.035 0.3832999999999984
496.337 0.21659999999999968
496.642 0.3332999999999977
496.945 0.28330000000000055
497.249 0.3332999999999977
497.552 0.28330000000000055
497.856 0.31659999999999755
498.159 0.34999999999999787
498.461 0.28330000000000055
498.766 0.3000000000000007
499.068 0.3332999999999977
499.372 0.3332999999999977
499.675 0.3000000000000007
499.977 0.28330000000000055
500.282 0.34999999999999787
500.584 0.28330000000000055
500.889 0.28330000000000055
501.191 0.23329999999999984
501.493 0.21659999999999968
501.798 0.23329999999999984
502.1 0.41659999999999897
502.402 0.4499999999999993
502.707 0.25
503.009 0.36659999999999826
503.314 0.34999999999999787
503.616 0.3332999999999977
503.918 0.3332999999999977
504.222 0.28330000000000055
504.525 0.3000000000000007
504.827 0.31659999999999755
505.131 0.3332999999999977
505.433 0.3832999999999984
505.736 0.3332999999999977
506.04 0.25
506.342 0.3000000000000007
506.646 0.3000000000000007
506.949 0.3332999999999977
507.251 0.28330000000000055
507.555 0.31659999999999755
507.857 0.41659999999999897
508.159 0.36659999999999826
508.461 0.3000000000000007
508.766 0.3832999999999984
509.068 0.25
509.37 0.28330000000000055
509.674 0.28330000000000055
509.976 0.31659999999999755
510.278 0.2666000000000004
510.582 0.25
510.884 0.41659999999999897
511.186 0.34999999999999787
511.49 0.28330000000000055
511.792 0.31659999999999755
512.094 0.3000000000000007
512.396 0.3332999999999977
512.701 0.31659999999999755
513.003 0.31659999999999755
513.305 0.3000000000000007
513.609 0.3332999999999977
513.91 0.36659999999999826
514.212 0.23329999999999984
514.514 0.3832999999999984
514.818 0.23329999999999984
515.12 0.28330000000000055
515.422 0.36659999999999826
515.724 0.18329999999999913
516.028 0.31659999999999755
516.33 0.34999999999999787
516.632 0.31659999999999755
516.934 0.2666000000000004
517.237 0.34999999999999787
517.539 0.34999999999999787
517.841 0.41659999999999897
518.143 0.28330000000000055
518.447 0.34999999999999787
518.749 0.3332999999999977
519.05 0.3000000000000007
519.352 0.34999999999999787
519.656 0.2666000000000004
519.958 0.36659999999999826
520.26 0.21659999999999968
520.561 0.3832999999999984
520.863 0.3000000000000007
521.167 0.36659999999999826
521.468 0.4499999999999993
521.77 0.3332999999999977
522.072 0.48329999999999984
522.376 0.3332999999999977
522.677 0.34999999999999787
522.979 0.28330000000000055
523.281 0.41659999999999897
523.582 0.34999999999999787
523.884 0.25
524.187 0.3332999999999977
524.489 0.3332999999999977
524.791 0.36659999999999826
525.092 0.31659999999999755
525.394 0.43329999999999913
525.697 0.28330000000000055
525.999 0.3999999999999986
526.301 0.4665999999999997
526.602 0.31659999999999755
526.904 0.34999999999999787
527.205 0.23329999999999984
527.507 0.31659999999999755
527.81 0.3999999999999986
528.112 0.3999999999999986
528.413 0.3000000000000007
528.715 0.3832999999999984
529.016 0.43329999999999913
529.318 0.3000000000000007
529.619 0.3999999999999986
529.922 0.21659999999999968
530.224 0.34999999999999787
530.525 0.4665999999999997
530.827 0.34999999999999787
531.128 0.28330000000000055
531.429 0.36659999999999826
531.731 0.3332999999999977
532.032 0.3000000000000007
532.336 0.3000000000000007
532.637 0.36659999999999826
532.938 0.3999999999999986
533.24 0.34999999999999787
533.541 0.36659999999999826
533.842 0.3000000000000007
534.143 0.3832999999999984
534.445 0.3332999999999977
534.746 0.4665999999999997
535.047 0.28330000000000055
535.351 0.36659999999999826
535.652 0.36659999999999826
535.953 0.21659999999999968
536.254 0.3000000000000007
536.555 0.2666000000000004
536.857 0.34999999999999787
537.158 0.25
537.459 0.43329999999999913
537.76 0.48329999999999984
538.061 0.28330000000000055
538.362 0.28330000000000055
538.664 0.3999999999999986
538.965 0.3999999999999986
539.266 0.3999999999999986
539.567 0.3999999999999986
539.868 0.3332999999999977
540.169 0.41659999999999897
540.472 0.41659999999999897
540.773 0.36659999999999826
541.074 0.36659999999999826
541.375 0.41659999999999897
541.677 0.3999999999999986
541.978 0.3832999999999984
542.279 0.3000000000000007
542.58 0.4665999999999997
542.881 0.3832999999999984
543.182 0.2666000000000004
543.483 0.4499999999999993
543.784 0.28330000000000055
544.085 0.3000000000000007
544.385 0.3332999999999977
544.686 0.25
544.987 0.4499999999999993
545.288 0.36659999999999826
545.589 0.25
545.89 0.3999999999999986
546.191 0.31659999999999755
546.492 0.31659999999999755
546.793 0.2666000000000004
547.094 0.31659999999999755
547.394 0.36659999999999826
547.695 0.3000000000000007
547.996 0.3000000000000007
548.297 0.34999999999999787
548.596 0.28330000000000055
548.897 0.5166000000000004
549.197 0.34999999999999787
549.498 0.43329999999999913
549.799 0.3999999999999986
550.1 0.3332999999999977
550.4 0.31659999999999755
550.701 0.41659999999999897
551.002 0.4499999999999993
551.303 0.4499999999999993
551.603 0.6499999999999986
551.904 0.5500000000000007
552.205 0.48329999999999984
552.505 0.5166000000000004
552.806 0.3999999999999986
553.107 0.4499999999999993
553.407 0.5665999999999976
553.706 0.5500000000000007
554.007 0.5333000000000006
554.307 0.5665999999999976
554.608 0.5665999999999976
554.909 0.5500000000000007
555.209 0.5665999999999976
555.51 0.5999999999999979
555.81 0.5500000000000007
556.111 0.6332999999999984
556.411 0.5665999999999976
556.71 0.5333000000000006
557.01 0.4665999999999997
557.311 0.6165999999999983
557.612 0.5832999999999977
557.912 0.5166000000000004
558.213 0.4499999999999993
558.513 0.5665999999999976
558.813 0.43329999999999913
559.112 0.4499999999999993
559.412 0.5
559.713 0.36659999999999826
560.013 0.5500000000000007
560.314 0.3999999999999986
560.614 0.4499999999999993
560.914 0.4499999999999993
561.213 0.31659999999999755
561.513 0.3999999999999986
561.814 0.43329999999999913
562.114 0.3832999999999984
562.414 0.3999999999999986
562.715 0.3832999999999984
563.015 0.3332999999999977
563.313 0.3832999999999984
563.614 0.3332999999999977
563.914 0.36659999999999826
564.214 0.3832999999999984
564.515 0.3999999999999986
564.813 0.31659999999999755
565.113 0.3832999999999984
565.413 0.36659999999999826
565.714 0.28330000000000055
566.014 0.3332999999999977
566.312 0.3999999999999986
566.612 0.3332999999999977
566.912 0.43329999999999913
567.213 0.41659999999999897
567.513 0.34999999999999787
567.811 0.3332999999999977
568.111 0.36659999999999826
568.411 0.43329999999999913
568.712 0.3999999999999986
569.012 0.31659999999999755
569.31 0.34999999999999787
569.61 0.31659999999999755
569.91 0.41659999999999897
570.21 0.31659999999999755
570.508 0.48329999999999984
570.808 0.3332999999999977
571.108 0.3832999999999984
571.408 0.34999999999999787
571.706 0.21659999999999968
572.006 0.3999999999999986
572.306 0.3000000000000007
572.607 0.34999999999999787
572.904 0.34999999999999787
573.204 0.3999999999999986
573.505 0.25
573.805 0.34999999999999787
574.102 0.2666000000000004
574.402 0.3332999999999977
574.702 0.28330000000000055
575.002 0.5166000000000004
575.3 0.31659999999999755
575.6 0.1999999999999993
575.9 0.31659999999999755
576.198 0.25
576.498 0.31659999999999755
576.798 0.3332999999999977
577.098 0.3332999999999977
577.395 0.43329999999999913
577.695 0.2666000000000004
577.995 0.41659999999999897
578.293 0.41659999999999897
578.593 0.3999999999999986
578.893 0.2666000000000004
579.19 0.41659999999999897
579.49 0.3999999999999986
579.79 0.3332999999999977
580.088 0.3332999999999977
580.387 0.36659999999999826
580.687 0.34999999999999787
580.985 0.31659999999999755
581.285 0.31659999999999755
581.584 0.3332999999999977
581.882 0.31659999999999755
582.182 0.3999999999999986
582.482 0.36659999999999826
582.779 0.3332999999999977
583.079 0.3332999999999977
583.378 0.28330000000000055
583.676 0.3332999999999977
583.976 0.2666000000000004
584.275 0.3000000000000007
584.573 0.2666000000000004
584.873 0.48329999999999984
585.17 0.3000000000000007
585.47 0.3332999999999977
585.769 0.3332999999999977
586.067 0.48329999999999984
586.367 0.3332999999999977
586.666 0.2666000000000004
586.964 0.43329999999999913
587.263 0.28330000000000055
587.561 0.3999999999999986
587.86 0.41659999999999897
588.16 0.36659999999999826
588.457 0.3999999999999986
588.757 0.3000000000000007
589.054 0.3332999999999977
589.354 0.34999999999999787
589.653 0.3999999999999986
589.951 0.3999999999999986
590.25 0.28330000000000055
590.547 0.34999999999999787
590.847 0.28330000000000055
591.144 0.31659999999999755
591.444 0.2666000000000004
591.743 0.3332999999999977
592.04 0.31659999999999755
592.34 0.25
592.637 0.2666000000000004
592.936 0.3999999999999986
593.234 0.31659999999999755
593.533 0.31659999999999755
593.832 0.28330000000000055
594.13 0.3332999999999977
594.429 0.36659999999999826
594.726 0.31659999999999755
595.026 0.3332999999999977
595.323 0.2666000000000004
595.622 0.48329999999999984
595.919 0.31659999999999755
596.219 0.3000000000000007
596.516 0.36659999999999826
596.815 0.28330000000000055
597.112 0.3000000000000007
597.411 0.28330000000000055
597.709 0.4499999999999993
598.008 0.3332999999999977
598.305 0.2666000000000004
598.604 0.31659999999999755
598.901 0.3332999999999977
599.2 0.3832999999999984
599.497 0.41659999999999897
599.797 0.34999999999999787
600.094 0.2666000000000004
600.393 0.3332999999999977
600.69 0.3000000000000007
600.989 0.34999999999999787
601.286 0.28330000000000055
601.585 0.28330000000000055
601.882 0.3832999999999984
602.181 0.34999999999999787
602.478 0.41659999999999897
602.777 0.31659999999999755
603.074 0.3000000000000007
603.373 0.34999999999999787
603.67 0.2666000000000004
603.969 0.4499999999999993
604.266 0.28330000000000055
604.563 0.3832999999999984
604.862 0.31659999999999755
605.159 0.36659999999999826
605.458 0.28330000000000055
605.755 0.36659999999999826
606.054 0.25
606.351 0.3832999999999984
606.65 0.23329999999999984
606.946 0.41659999999999897
607.243 0.3332999999999977
607.542 0.48329999999999984
607.839 0.3999999999999986
608.138 0.36659999999999826
608.435 0.5166000000000004
608.732 0.34999999999999787
609.03 0.43329999999999913
609.327 0.3999999999999986
609.626 0.3999999999999986
609.923 0.3999999999999986
610.22 0.31659999999999755
610.518 0.48329999999999984
610.815 0.5665999999999976
611.114 0.43329999999999913
611.411 0.43329999999999913
611.707 0.5500000000000007
612.006 0.3832999999999984
612.303 0.48329999999999984
612.601 0.41659999999999897
612.898 0.48329999999999984
613.195 0.3332999999999977
613.493 0.5166000000000004
613.79 0.41659999999999897
614.087 0.48329999999999984
614.385 0.3999999999999986
614.682 0.3332999999999977
614.979 0.5166000000000004
615.277 0.41659999999999897
615.574 0.4665999999999997
615.87 0.5665999999999976
616.169 0.36659999999999826
616.466 0.4499999999999993
616.764 0.3832999999999984
617.061 0.34999999999999787
617.357 0.43329999999999913
617.656 0.3000000000000007
617.952 0.31659999999999755
618.249 0.4665999999999997
618.545 0.36659999999999826
618.844 0.3832999999999984
619.14 0.3832999999999984
619.437 0.3832999999999984
619.735 0.3332999999999977
620.032 0.36659999999999826
620.328 0.25
620.626 0.3332999999999977
620.923 0.36659999999999826
621.219 0.23329999999999984
621.518 0.3999999999999986
621.814 0.2666000000000004
622.11 0.3332999999999977
622.407 0.31659999999999755
622.705 0.28330000000000055
623.002 0.31659999999999755
623.298 0.34999999999999787
623.594 0.31659999999999755
623.893 0.28330000000000055
624.189 0.31659999999999755
624.485 0.3332999999999977
624.784 0.3832999999999984
625.08 0.3832999999999984
625.376 0.36659999999999826
625.672 0.3000000000000007
625.971 0.3332999999999977
626.267 0.3832999999999984
626.563 0.3000000000000007
626.859 0.3000000000000007
627.158 0.43329999999999913
627.454 0.41659999999999897
627.75 0.31659999999999755
628.046 0.28330000000000055
628.342 0.31659999999999755
628.641 0.31659999999999755
628.937 0.28330000000000055
629.233 0.3332999999999977
629.529 0.3832999999999984
629.827 0.3000000000000007
630.123 0.36659999999999826
630.419 0.34999999999999787
630.715 0.28330000000000055
631.011 0.36659999999999826
631.31 0.3000000000000007
631.606 0.28330000000000055
631.902 0.3832999999999984
632.198 0.3999999999999986
632.494 0.3332999999999977
632.792 0.43329999999999913
633.088 0.31659999999999755
633.384 0.36659999999999826
633.68 0.21659999999999968
633.976 0.3332999999999977
634.272 0.18329999999999913
634.57 0.21659999999999968
634.866 0.3332999999999977
635.162 0.3332999999999977
635.458 0.36659999999999826
635.754 0.3332999999999977
636.05 0.31659999999999755
636.347 0.41659999999999897
636.643 0.1999999999999993
636.939 0.34999999999999787
637.235 0.3332999999999977
637.531 0.36659999999999826
637.827 0.36659999999999826
638.123 0.34999999999999787
638.421 0.31659999999999755
638.716 0.25
639.012 0.31659999999999755
639.308 0.3832999999999984
639.604 0.34999999999999787
639.9 0.3332999999999977
640.195 0.31659999999999755
640.491 0.23329999999999984
640.789 0.48329999999999984
641.085 0.3832999999999984
641.381 0.36659999999999826
641.676 0.3000000000000007
641.972 0.36659999999999826
642.268 0.3332999999999977
642.563 0.23329999999999984
642.859 0.5166000000000004
643.155 0.23329999999999984
643.451 0.31659999999999755
643.746 0.3832999999999984
644.044 0.34999999999999787
644.34 0.4665999999999997
644.635 0.2666000000000004
644.931 0.3332999999999977
645.227 0.43329999999999913
645.522 0.21659999999999968
645.818 0.36659999999999826
646.113 0.3332999999999977
646.409 0.28330000000000055
646.704 0.34999999999999787
647.0 0.31659999999999755
647.296 0.3000000000000007
647.591 0.3832999999999984
647.887 0.3332999999999977
648.182 0.36659999999999826
648.478 0.3332999999999977
648.773 0.31659999999999755
649.069 0.41659999999999897
649.366 0.5
649.662 0.36659999999999826
649.957 0.3332999999999977
650.253 0.36659999999999826
650.548 0.3832999999999984
650.844 0.41659999999999897
651.139 0.34999999999999787
651.434 0.43329999999999913
651.73 0.36659999999999826
652.025 0.43329999999999913
652.321 0.31659999999999755
652.616 0.34999999999999787
652.911 0.41659999999999897
653.207 0.5333000000000006
653.502 0.3832999999999984
653.797 0.34999999999999787
654.093 0.36659999999999826
654.388 0.3832999999999984
654.683 0.5166000000000004
654.979 0.4665999999999997
655.274 0.3000000000000007
655.567 0.5832999999999977
655.863 0.5832999999999977
656.158 0.3332999999999977
656.453 0.48329999999999984
656.748 0.5999999999999979
657.044 0.5665999999999976
657.339 0.4665999999999997
657.634 0.4499999999999993
657.929 0.43329999999999913
658.224 0.4665999999999997
658.52 0.5500000000000007
658.815 0.5999999999999979
659.11 0.5832999999999977
659.405 0.4665999999999997
659.7 0.5665999999999976
659.995 0.5665999999999976
660.291 0.75
660.586 0.666599999999999
660.879 0.5166000000000004
661.174 0.6999999999999993
661.469 0.6332999999999984
661.764 0.6165999999999983
662.059 0.666599999999999
662.354 0.5
662.649 0.6499999999999986
662.944 0.5500000000000007
663.239 0.5999999999999979
663.534 0.5832999999999977
663.83 0.5999999999999979
664.122 0.5333000000000006
664.417 0.4499999999999993
664.713 0.6332999999999984
665.008 0.5665999999999976
665.302 0.43329999999999913
665.597 0.5166000000000004
665.892 0.4499999999999993
666.187 0.5500000000000007
666.48 0.4665999999999997
666.775 0.5166000000000004
667.07 0.5166000000000004
667.365 0.5832999999999977
667.66 0.41659999999999897
667.955 0.41659999999999897
668.25 0.4499999999999993
668.542 0.36659999999999826
668.837 0.36659999999999826
669.132 0.5500000000000007
669.427 0.41659999999999897
669.722 0.41659999999999897
670.017 0.4499999999999993
670.31 0.48329999999999984
670.604 0.3999999999999986
670.899 0.36659999999999826
671.194 0.36659999999999826
671.489 0.4665999999999997
671.783 0.2666000000000004
672.076 0.43329999999999913
672.371 0.41659999999999897
672.666 0.3332999999999977
672.96 0.3832999999999984
673.255 0.5166000000000004
673.548 0.3332999999999977
673.842 0.43329999999999913
674.137 0.34999999999999787
674.432 0.4499999999999993
674.727 0.3332999999999977
675.019 0.41659999999999897
675.314 0.5
675.608 0.4665999999999997
675.903 0.28330000000000055
676.196 0.36659999999999826
676.49 0.3999999999999986
676.785 0.3832999999999984
677.079 0.34999999999999787
677.374 0.43329999999999913
677.667 0.3332999999999977
677.961 0.34999999999999787
678.256 0.31659999999999755
678.55 0.3332999999999977
678.843 0.3999999999999986
679.137 0.3332999999999977
679.432 0.41659999999999897
679.726 0.34999999999999787
680.019 0.3000000000000007
680.313 0.3832999999999984
680.608 0.3332999999999977
680.902 0.28330000000000055
681.195 0.28330000000000055
681.489 0.3999999999999986
681.784 0.3999999999999986
682.076 0.3832999999999984
682.37 0.5333000000000006
682.665 0.28330000000000055
682.959 0.28330000000000055
683.252 0.25
683.546 0.34999999999999787
683.84 0.48329999999999984
684.133 0.3000000000000007
684.427 0.3332999999999977
684.721 0.3332999999999977
685.014 0.28330000000000055
685.308 0.28330000000000055
685.602 0.3332999999999977
685.895 0.2666000000000004
686.189 0.3332999999999977
686.483 0.31659999999999755
686.778 0.28330000000000055
687.07 0.2666000000000004
687.364 0.36659999999999826
687.658 0.41659999999999897
687.951 0.34999999999999787
688.245 0.2666000000000004
688.537 0.25
688.831 0.3332999999999977
689.125 0.31659999999999755
689.418 0.31659999999999755
689.712 0.36659999999999826
690.006 0.2666000000000004
690.298 0.36659999999999826
690.592 0.41659999999999897
690.886 0.3332999999999977
691.178 0.36659999999999826
691.473 0.36659999999999826
691.767 0.43329999999999913
692.059 0.3000000000000007
692.353 0.36659999999999826
692.645 0.34999999999999787
692.939 0.31659999999999755
693.233 0.2666000000000004
693.525 0.28330000000000055
693.819 0.3832999999999984
694.111 0.3000000000000007
694.405 0.43329999999999913
694.699 0.4665999999999997
694.991 0.34999999999999787
695.285 0.3999999999999986
695.577 0.3332999999999977
695.871 0.43329999999999913
696.165 0.3000000000000007
696.457 0.31659999999999755
696.751 0.3332999999999977
697.043 0.41659999999999897
697.337 0.31659999999999755
697.629 0.43329999999999913
697.923 0.3999999999999986
698.217 0.31659999999999755
698.509 0.25
698.802 0.31659999999999755
699.094 0.34999999999999787
699.388 0.28330000000000055
699.68 0.3332999999999977
699.974 0.34999999999999787
700.266 0.3832999999999984
700.56 0.34999999999999787
700.853 0.3000000000000007
701.145 0.31659999999999755
701.439 0.31659999999999755
701.731 0.28330000000000055
702.025 0.28330000000000055
702.316 0.2666000000000004
702.61 0.36659999999999826
702.902 0.28330000000000055
703.196 0.31659999999999755
703.487 0.31659999999999755
703.781 0.28330000000000055
704.073 0.34999999999999787
704.367 0.3332999999999977
704.658 0.21659999999999968
704.952 0.34999999999999787
705.244 0.3332999999999977
705.537 0.4499999999999993
705.829 0.25
706.122 0.3832999999999984
706.414 0.2666000000000004
706.708 0.25
706.999 0.34999999999999787
707.293 0.34999999999999787
