# Created: 2019-11-28 13:05:44.218169
# rshift intensity
76.1738 0.26670000000000016
76.4989 0.1833999999999989
76.824 0.1333999999999982
77.1491 0.2834000000000003
77.4721 0.2834000000000003
77.7972 0.11669999999999803
78.1223 0.14999999999999858
78.4474 0.16669999999999874
78.7724 0.16669999999999874
79.0975 0.16669999999999874
79.4204 0.04999999999999716
79.7454 0.16669999999999874
80.0704 0.06669999999999732
80.3954 0.04999999999999716
80.7204 0.06669999999999732
81.0454 0.04999999999999716
81.3682 0.09999999999999787
81.6931 0.1333999999999982
82.0181 0.14999999999999858
82.343 0.11669999999999803
82.6679 0.16669999999999874
82.9907 0.08339999999999748
83.3156 0.09999999999999787
83.6405 0.08339999999999748
83.9654 0.14999999999999858
84.2903 0.09999999999999787
84.613 0.08339999999999748
84.9378 0.08339999999999748
85.2626 0.08339999999999748
85.5875 0.08339999999999748
85.9101 0.14999999999999858
86.2349 0.04999999999999716
86.5597 0.09999999999999787
86.8845 0.1333999999999982
87.2093 0.11669999999999803
87.5319 0.16669999999999874
87.8566 0.1333999999999982
88.1814 0.04999999999999716
88.5061 0.08339999999999748
88.8286 0.09999999999999787
89.1533 0.1999999999999993
89.478 0.08339999999999748
89.8027 0.09999999999999787
90.1252 0.09999999999999787
90.4499 0.04999999999999716
90.7745 0.16669999999999874
91.0992 0.06669999999999732
91.4216 0.1333999999999982
91.7462 0.2333999999999996
92.0708 0.01670000000000016
92.3954 0.16669999999999874
92.7179 0.09999999999999787
93.0424 0.11669999999999803
93.367 0.1833999999999989
93.6915 0.08339999999999748
94.0139 0.09999999999999787
94.3384 0.14999999999999858
94.6629 0.1999999999999993
94.9853 0.1333999999999982
95.3098 0.1333999999999982
95.6342 0.09999999999999787
95.9587 0.06669999999999732
96.281 0.11669999999999803
96.6055 0.11669999999999803
96.9299 0.11669999999999803
97.2522 0.1333999999999982
97.5766 0.09999999999999787
97.901 0.1333999999999982
98.2232 0.11669999999999803
98.5476 0.06669999999999732
98.8719 0.14999999999999858
99.1942 0.14999999999999858
99.5185 0.06669999999999732
99.8428 0.14999999999999858
100.165 0.1833999999999989
100.489 0.16669999999999874
100.814 0.1333999999999982
101.136 0.11669999999999803
101.46 0.1999999999999993
101.784 0.09999999999999787
102.106 0.21669999999999945
102.431 0.06669999999999732
102.755 0.11669999999999803
103.077 0.1333999999999982
103.401 0.06669999999999732
103.725 0.11669999999999803
104.047 0.14999999999999858
104.372 0.1333999999999982
104.696 0.14999999999999858
105.018 0.1333999999999982
105.342 0.21669999999999945
105.666 0.09999999999999787
105.988 0.14999999999999858
106.312 0.08339999999999748
106.634 0.16669999999999874
106.958 0.09999999999999787
107.282 0.08339999999999748
107.604 0.16669999999999874
107.928 0.1333999999999982
108.252 0.08339999999999748
108.574 0.1333999999999982
108.898 0.11669999999999803
109.22 0.14999999999999858
109.544 0.11669999999999803
109.868 0.09999999999999787
110.19 0.08339999999999748
110.514 0.11669999999999803
110.836 0.16669999999999874
111.159 0.08339999999999748
111.483 0.11669999999999803
111.805 0.1833999999999989
112.129 0.11669999999999803
112.451 0.08339999999999748
112.775 0.11669999999999803
113.096 0.1333999999999982
113.42 0.1833999999999989
113.744 0.06669999999999732
114.066 0.14999999999999858
114.39 0.1333999999999982
114.711 0.16669999999999874
115.035 0.1833999999999989
115.357 0.14999999999999858
115.681 0.16669999999999874
116.004 0.09999999999999787
116.326 0.1333999999999982
116.65 0.08339999999999748
116.971 0.14999999999999858
117.295 0.14999999999999858
117.617 0.09999999999999787
117.94 0.09999999999999787
118.262 0.16669999999999874
118.586 0.14999999999999858
118.907 0.2834000000000003
119.231 0.14999999999999858
119.554 0.11669999999999803
119.876 0.09999999999999787
120.199 0.04999999999999716
120.521 0.14999999999999858
120.845 0.1333999999999982
121.166 0.09999999999999787
121.49 0.2333999999999996
121.811 0.11669999999999803
122.135 0.09999999999999787
122.456 0.08339999999999748
122.78 0.1999999999999993
123.101 0.1833999999999989
123.424 0.16669999999999874
123.746 0.14999999999999858
124.069 0.16669999999999874
124.391 0.1333999999999982
124.714 0.21669999999999945
125.035 0.09999999999999787
125.359 0.14999999999999858
125.68 0.06669999999999732
126.004 0.09999999999999787
126.325 0.1833999999999989
126.648 0.16669999999999874
126.97 0.25
127.291 0.16669999999999874
127.614 0.1833999999999989
127.935 0.21669999999999945
128.259 0.11669999999999803
128.58 0.14999999999999858
128.903 0.11669999999999803
129.224 0.08339999999999748
129.548 0.14999999999999858
129.869 0.11669999999999803
130.192 0.1833999999999989
130.513 0.14999999999999858
130.834 0.1833999999999989
131.158 0.11669999999999803
131.479 0.16669999999999874
131.802 0.26670000000000016
132.123 0.1333999999999982
132.446 0.08339999999999748
132.767 0.16669999999999874
133.09 0.1833999999999989
133.411 0.1999999999999993
133.733 0.14999999999999858
134.056 0.16669999999999874
134.377 0.08339999999999748
134.7 0.16669999999999874
135.021 0.14999999999999858
135.342 0.04999999999999716
135.665 0.09999999999999787
135.986 0.14999999999999858
136.309 0.06669999999999732
136.63 0.16669999999999874
136.951 0.16669999999999874
137.274 0.21669999999999945
137.595 0.08339999999999748
137.918 0.1833999999999989
138.238 0.09999999999999787
138.559 0.14999999999999858
138.882 0.1333999999999982
139.203 0.1833999999999989
139.526 0.1333999999999982
139.847 0.11669999999999803
140.168 0.08339999999999748
140.491 0.1999999999999993
140.811 0.06669999999999732
141.132 0.2333999999999996
141.455 0.16669999999999874
141.776 0.09999999999999787
142.097 0.1999999999999993
142.419 0.1999999999999993
142.74 0.1333999999999982
143.061 0.11669999999999803
143.384 0.1833999999999989
143.704 0.26670000000000016
144.027 0.08339999999999748
144.348 0.1333999999999982
144.668 0.11669999999999803
144.991 0.26670000000000016
145.312 0.1333999999999982
145.632 0.09999999999999787
145.955 0.1833999999999989
146.276 0.14999999999999858
146.596 0.09999999999999787
146.917 0.14999999999999858
147.24 0.1333999999999982
147.56 0.11669999999999803
147.881 0.09999999999999787
148.203 0.1333999999999982
148.524 0.14999999999999858
148.844 0.11669999999999803
149.167 0.09999999999999787
149.487 0.06669999999999732
149.808 0.1833999999999989
150.131 0.2333999999999996
150.451 0.06669999999999732
150.771 0.11669999999999803
151.092 0.09999999999999787
151.414 0.14999999999999858
151.735 0.1333999999999982
152.055 0.06669999999999732
152.378 0.1833999999999989
152.698 0.14999999999999858
153.018 0.11669999999999803
153.339 0.1999999999999993
153.661 0.16669999999999874
153.982 0.1333999999999982
154.302 0.1833999999999989
154.622 0.11669999999999803
154.945 0.14999999999999858
155.265 0.03340000000000032
155.585 0.14999999999999858
155.905 0.09999999999999787
156.228 0.2333999999999996
156.548 0.25
156.868 0.1333999999999982
157.188 0.16669999999999874
157.511 0.09999999999999787
157.831 0.14999999999999858
158.151 0.1999999999999993
158.471 0.14999999999999858
158.794 0.16669999999999874
159.114 0.1333999999999982
159.434 0.14999999999999858
159.754 0.04999999999999716
160.074 0.08339999999999748
160.396 0.2333999999999996
160.717 0.1333999999999982
161.037 0.1999999999999993
161.357 0.09999999999999787
161.679 0.09999999999999787
161.999 0.1333999999999982
162.319 0.14999999999999858
162.639 0.1333999999999982
162.959 0.14999999999999858
163.281 0.14999999999999858
163.601 0.14999999999999858
163.921 0.16669999999999874
164.241 0.1333999999999982
164.561 0.26670000000000016
164.881 0.08339999999999748
165.203 0.21669999999999945
165.523 0.16669999999999874
165.843 0.25
166.163 0.16669999999999874
166.483 0.14999999999999858
166.803 0.1333999999999982
167.125 0.09999999999999787
167.445 0.1999999999999993
167.764 0.09999999999999787
168.084 0.16669999999999874
168.404 0.25
168.724 0.1833999999999989
169.046 0.14999999999999858
169.366 0.16669999999999874
169.685 0.1833999999999989
170.005 0.1999999999999993
170.325 0.1833999999999989
170.645 0.14999999999999858
170.964 0.1333999999999982
171.286 0.21669999999999945
171.606 0.08339999999999748
171.926 0.1833999999999989
172.245 0.25
172.565 0.1333999999999982
172.885 0.11669999999999803
173.204 0.16669999999999874
173.524 0.11669999999999803
173.846 0.11669999999999803
174.166 0.09999999999999787
174.485 0.16669999999999874
174.805 0.11669999999999803
175.124 0.14999999999999858
175.444 0.16669999999999874
175.764 0.1833999999999989
176.083 0.11669999999999803
176.403 0.14999999999999858
176.722 0.11669999999999803
177.044 0.16669999999999874
177.363 0.11669999999999803
177.683 0.2333999999999996
178.002 0.08339999999999748
178.322 0.21669999999999945
178.641 0.14999999999999858
178.961 0.1833999999999989
179.28 0.11669999999999803
179.6 0.2333999999999996
179.919 0.1833999999999989
180.239 0.1999999999999993
180.558 0.1999999999999993
180.877 0.09999999999999787
181.197 0.0
181.516 0.06669999999999732
181.838 0.26670000000000016
182.157 0.11669999999999803
182.476 0.09999999999999787
182.796 0.16669999999999874
183.115 0.09999999999999787
183.434 0.14999999999999858
183.754 0.14999999999999858
184.073 0.14999999999999858
184.392 0.1833999999999989
184.712 0.14999999999999858
185.031 0.11669999999999803
185.35 0.14999999999999858
185.669 0.1333999999999982
185.989 0.04999999999999716
186.308 0.1333999999999982
186.627 0.1833999999999989
186.946 0.21669999999999945
187.265 0.11669999999999803
187.585 0.08339999999999748
187.904 0.14999999999999858
188.223 0.11669999999999803
188.542 0.16669999999999874
188.861 0.14999999999999858
189.18 0.16669999999999874
189.499 0.1333999999999982
189.818 0.11669999999999803
190.138 0.1833999999999989
190.457 0.1833999999999989
190.776 0.08339999999999748
191.095 0.16669999999999874
191.414 0.1999999999999993
191.733 0.1999999999999993
192.052 0.1333999999999982
192.371 0.11669999999999803
192.69 0.08339999999999748
193.009 0.14999999999999858
193.328 0.1999999999999993
193.647 0.1333999999999982
193.966 0.1333999999999982
194.285 0.1333999999999982
194.602 0.14999999999999858
194.92 0.1333999999999982
195.239 0.21669999999999945
195.558 0.11669999999999803
195.877 0.16669999999999874
196.196 0.16669999999999874
196.515 0.14999999999999858
196.834 0.21669999999999945
197.153 0.14999999999999858
197.471 0.16669999999999874
197.79 0.1999999999999993
198.109 0.16669999999999874
198.428 0.2333999999999996
198.747 0.16669999999999874
199.065 0.1999999999999993
199.382 0.1833999999999989
199.701 0.16669999999999874
200.02 0.14999999999999858
200.338 0.1333999999999982
200.657 0.09999999999999787
200.976 0.21669999999999945
201.295 0.16669999999999874
201.613 0.1833999999999989
201.932 0.14999999999999858
202.251 0.1999999999999993
202.567 0.16669999999999874
202.886 0.14999999999999858
203.204 0.1999999999999993
203.523 0.1333999999999982
203.842 0.11669999999999803
204.16 0.1999999999999993
204.479 0.25
204.797 0.14999999999999858
205.114 0.2333999999999996
205.433 0.1833999999999989
205.751 0.1999999999999993
206.07 0.29999999999999716
206.388 0.16669999999999874
206.707 0.2333999999999996
207.025 0.1833999999999989
207.342 0.1333999999999982
207.66 0.1333999999999982
207.979 0.25
208.297 0.1833999999999989
208.615 0.09999999999999787
208.934 0.25
209.25 0.11669999999999803
209.569 0.25
209.887 0.14999999999999858
210.205 0.16669999999999874
210.524 0.14999999999999858
210.842 0.1999999999999993
211.158 0.26670000000000016
211.477 0.14999999999999858
211.795 0.1833999999999989
212.113 0.14999999999999858
212.432 0.1999999999999993
212.75 0.1833999999999989
213.066 0.09999999999999787
213.385 0.14999999999999858
213.703 0.1999999999999993
214.021 0.2333999999999996
214.339 0.1999999999999993
214.656 0.08339999999999748
214.974 0.16669999999999874
215.292 0.25
215.61 0.16669999999999874
215.926 0.2333999999999996
216.245 0.1833999999999989
216.563 0.16669999999999874
216.881 0.1333999999999982
217.199 0.21669999999999945
217.515 0.21669999999999945
217.833 0.21669999999999945
218.151 0.21669999999999945
218.469 0.1833999999999989
218.785 0.2333999999999996
219.104 0.1833999999999989
219.422 0.2333999999999996
219.74 0.21669999999999945
220.056 0.1999999999999993
220.374 0.2333999999999996
220.692 0.09999999999999787
221.01 0.21669999999999945
221.326 0.21669999999999945
221.644 0.08339999999999748
221.962 0.1833999999999989
222.28 0.3166999999999973
222.596 0.21669999999999945
222.914 0.1833999999999989
223.232 0.25
223.547 0.16669999999999874
223.865 0.1999999999999993
224.183 0.1833999999999989
224.501 0.26670000000000016
224.817 0.25
225.135 0.1999999999999993
225.453 0.2333999999999996
225.768 0.16669999999999874
226.086 0.1333999999999982
226.404 0.21669999999999945
226.722 0.29999999999999716
227.038 0.21669999999999945
227.355 0.09999999999999787
227.673 0.1833999999999989
227.989 0.11669999999999803
228.307 0.1833999999999989
228.625 0.21669999999999945
228.94 0.08339999999999748
229.258 0.26670000000000016
229.576 0.1833999999999989
229.891 0.21669999999999945
230.209 0.25
230.527 0.2333999999999996
230.842 0.1999999999999993
231.16 0.1333999999999982
231.478 0.25
231.793 0.21669999999999945
232.111 0.1833999999999989
232.428 0.11669999999999803
232.744 0.09999999999999787
233.062 0.16669999999999874
233.379 0.26670000000000016
233.695 0.26670000000000016
234.012 0.1833999999999989
234.33 0.2333999999999996
234.645 0.21669999999999945
234.963 0.25
235.278 0.1833999999999989
235.596 0.11669999999999803
235.913 0.14999999999999858
236.229 0.21669999999999945
236.546 0.1999999999999993
236.864 0.1999999999999993
237.179 0.09999999999999787
237.497 0.1833999999999989
237.812 0.16669999999999874
238.129 0.1333999999999982
238.447 0.11669999999999803
238.762 0.25
239.08 0.14999999999999858
239.395 0.25
239.712 0.26670000000000016
240.03 0.21669999999999945
240.345 0.26670000000000016
240.662 0.1333999999999982
240.978 0.14999999999999858
241.295 0.14999999999999858
241.61 0.11669999999999803
241.927 0.1333999999999982
242.245 0.16669999999999874
242.56 0.2834000000000003
242.877 0.21669999999999945
243.192 0.14999999999999858
243.51 0.3166999999999973
243.825 0.2333999999999996
244.142 0.16669999999999874
244.459 0.1999999999999993
244.774 0.16669999999999874
245.092 0.14999999999999858
245.407 0.1833999999999989
245.724 0.21669999999999945
246.039 0.1833999999999989
246.356 0.25
246.671 0.21669999999999945
246.988 0.11669999999999803
247.303 0.21669999999999945
247.62 0.14999999999999858
247.938 0.16669999999999874
248.253 0.2333999999999996
248.57 0.1833999999999989
248.885 0.14999999999999858
249.202 0.21669999999999945
249.517 0.16669999999999874
249.834 0.14999999999999858
250.149 0.09999999999999787
250.466 0.366699999999998
250.781 0.25
251.098 0.14999999999999858
251.412 0.26670000000000016
251.729 0.21669999999999945
252.044 0.21669999999999945
252.361 0.21669999999999945
252.676 0.25
252.993 0.29999999999999716
253.308 0.21669999999999945
253.625 0.14999999999999858
253.94 0.14999999999999858
254.256 0.2333999999999996
254.571 0.1999999999999993
254.888 0.21669999999999945
255.203 0.26670000000000016
255.518 0.2333999999999996
255.834 0.1833999999999989
256.149 0.26670000000000016
256.466 0.26670000000000016
256.781 0.21669999999999945
257.097 0.2834000000000003
257.412 0.2834000000000003
257.729 0.14999999999999858
258.044 0.16669999999999874
258.36 0.21669999999999945
258.675 0.16669999999999874
258.99 0.1833999999999989
259.306 0.2333999999999996
259.621 0.14999999999999858
259.938 0.1833999999999989
260.252 0.16669999999999874
260.569 0.1833999999999989
260.883 0.2333999999999996
261.198 0.1999999999999993
261.515 0.14999999999999858
261.829 0.09999999999999787
262.146 0.1833999999999989
262.46 0.14999999999999858
262.775 0.1333999999999982
263.091 0.14999999999999858
263.406 0.21669999999999945
263.723 0.25
264.037 0.2333999999999996
264.354 0.08339999999999748
264.668 0.2333999999999996
264.982 0.1833999999999989
265.299 0.11669999999999803
265.613 0.1833999999999989
265.928 0.2333999999999996
266.244 0.21669999999999945
266.559 0.1833999999999989
266.875 0.1833999999999989
267.189 0.14999999999999858
267.504 0.1333999999999982
267.82 0.2333999999999996
268.134 0.21669999999999945
268.449 0.09999999999999787
268.765 0.16669999999999874
269.079 0.14999999999999858
269.394 0.09999999999999787
269.71 0.14999999999999858
270.024 0.16669999999999874
270.341 0.2834000000000003
270.655 0.25
270.969 0.09999999999999787
271.286 0.14999999999999858
271.6 0.1999999999999993
271.914 0.03340000000000032
272.23 0.25
272.544 0.1999999999999993
272.859 0.2333999999999996
273.175 0.1833999999999989
273.489 0.1999999999999993
273.803 0.26670000000000016
274.119 0.25
274.433 0.2333999999999996
274.747 0.1833999999999989
275.062 0.1999999999999993
275.378 0.11669999999999803
275.692 0.16669999999999874
276.006 0.25
276.322 0.1833999999999989
276.636 0.3166999999999973
276.95 0.25
277.266 0.25
277.58 0.1999999999999993
277.894 0.21669999999999945
278.208 0.2333999999999996
278.524 0.3166999999999973
278.838 0.2834000000000003
279.152 0.1333999999999982
279.468 0.2834000000000003
279.782 0.14999999999999858
280.096 0.14999999999999858
280.41 0.2333999999999996
280.726 0.21669999999999945
281.04 0.14999999999999858
281.354 0.1833999999999989
281.668 0.2834000000000003
281.983 0.2333999999999996
282.297 0.16669999999999874
282.611 0.21669999999999945
282.925 0.2834000000000003
283.241 0.1999999999999993
283.555 0.21669999999999945
283.868 0.14999999999999858
284.182 0.25
284.498 0.04999999999999716
284.812 0.2333999999999996
285.126 0.1833999999999989
285.439 0.16669999999999874
285.753 0.1833999999999989
286.069 0.14999999999999858
286.383 0.1999999999999993
286.696 0.26670000000000016
287.01 0.2333999999999996
287.326 0.16669999999999874
287.639 0.1999999999999993
287.953 0.14999999999999858
288.267 0.1833999999999989
288.58 0.1999999999999993
288.896 0.1999999999999993
289.21 0.1333999999999982
289.523 0.2333999999999996
289.837 0.21669999999999945
290.15 0.1833999999999989
290.466 0.2333999999999996
290.78 0.11669999999999803
291.093 0.21669999999999945
291.407 0.11669999999999803
291.72 0.1833999999999989
292.034 0.1333999999999982
292.349 0.1833999999999989
292.663 0.2333999999999996
292.976 0.09999999999999787
293.29 0.21669999999999945
293.603 0.1833999999999989
293.917 0.21669999999999945
294.232 0.26670000000000016
294.546 0.1333999999999982
294.859 0.29999999999999716
295.172 0.16669999999999874
295.486 0.14999999999999858
295.799 0.25
296.113 0.11669999999999803
296.428 0.1999999999999993
296.741 0.21669999999999945
297.055 0.2333999999999996
297.368 0.16669999999999874
297.681 0.21669999999999945
297.995 0.1333999999999982
298.308 0.16669999999999874
298.621 0.26670000000000016
298.937 0.2834000000000003
299.25 0.09999999999999787
299.563 0.2333999999999996
299.876 0.1999999999999993
300.19 0.25
300.503 0.1999999999999993
300.816 0.14999999999999858
301.129 0.29999999999999716
301.442 0.16669999999999874
301.756 0.14999999999999858
302.071 0.26670000000000016
302.384 0.1999999999999993
302.697 0.3166999999999973
303.01 0.21669999999999945
303.323 0.1999999999999993
303.637 0.1999999999999993
303.95 0.1833999999999989
304.263 0.26670000000000016
304.576 0.16669999999999874
304.889 0.1333999999999982
305.202 0.2834000000000003
305.515 0.16669999999999874
305.828 0.1833999999999989
306.141 0.1333999999999982
306.456 0.1999999999999993
306.769 0.1333999999999982
307.082 0.1833999999999989
307.395 0.2834000000000003
307.708 0.26670000000000016
308.021 0.21669999999999945
308.334 0.14999999999999858
308.647 0.21669999999999945
308.96 0.2333999999999996
309.273 0.1999999999999993
309.586 0.2333999999999996
309.899 0.29999999999999716
310.212 0.1999999999999993
310.525 0.26670000000000016
310.838 0.2333999999999996
311.15 0.1833999999999989
311.463 0.14999999999999858
311.776 0.26670000000000016
312.089 0.16669999999999874
312.402 0.1833999999999989
312.715 0.1999999999999993
313.027 0.3333999999999975
313.34 0.08339999999999748
313.653 0.21669999999999945
313.966 0.2333999999999996
314.278 0.1833999999999989
314.591 0.26670000000000016
314.904 0.2333999999999996
315.217 0.25
315.529 0.1833999999999989
315.842 0.26670000000000016
316.155 0.25
316.467 0.11669999999999803
316.78 0.1833999999999989
317.093 0.26670000000000016
317.405 0.08339999999999748
317.718 0.2834000000000003
318.031 0.2333999999999996
318.343 0.2834000000000003
318.656 0.25
318.969 0.2333999999999996
319.281 0.2333999999999996
319.592 0.16669999999999874
319.904 0.2834000000000003
320.217 0.2333999999999996
320.529 0.11669999999999803
320.842 0.25
321.154 0.16669999999999874
321.467 0.2834000000000003
321.779 0.09999999999999787
322.092 0.2333999999999996
322.404 0.2834000000000003
322.717 0.25
323.029 0.26670000000000016
323.342 0.21669999999999945
323.654 0.1833999999999989
323.965 0.25
324.277 0.16669999999999874
324.589 0.29999999999999716
324.902 0.25
325.214 0.3166999999999973
325.527 0.26670000000000016
325.839 0.2333999999999996
326.151 0.3833999999999982
326.464 0.3166999999999973
326.776 0.25
327.086 0.3166999999999973
327.399 0.3333999999999975
327.711 0.29999999999999716
328.023 0.25
328.335 0.2333999999999996
328.648 0.34999999999999787
328.96 0.1999999999999993
329.27 0.3166999999999973
329.582 0.3333999999999975
329.895 0.2834000000000003
330.207 0.3166999999999973
330.519 0.34999999999999787
330.831 0.29999999999999716
331.143 0.21669999999999945
331.454 0.366699999999998
331.766 0.3999999999999986
332.078 0.41669999999999874
332.39 0.4333999999999989
332.702 0.26670000000000016
333.014 0.3999999999999986
333.326 0.3333999999999975
333.636 0.3999999999999986
333.948 0.3333999999999975
334.261 0.2333999999999996
334.573 0.34999999999999787
334.885 0.3166999999999973
335.195 0.2333999999999996
335.507 0.2333999999999996
335.819 0.2834000000000003
336.131 0.25
336.443 0.26670000000000016
336.753 0.29999999999999716
337.065 0.29999999999999716
337.377 0.2834000000000003
337.689 0.29999999999999716
338.001 0.1333999999999982
338.31 0.2834000000000003
338.622 0.34999999999999787
338.934 0.1999999999999993
339.246 0.366699999999998
339.558 0.25
339.868 0.3333999999999975
340.18 0.3333999999999975
340.492 0.25
340.804 0.2834000000000003
341.113 0.26670000000000016
341.425 0.41669999999999874
341.737 0.2834000000000003
342.049 0.1833999999999989
342.361 0.1999999999999993
342.67 0.09999999999999787
342.982 0.366699999999998
343.294 0.25
343.606 0.1999999999999993
343.915 0.3166999999999973
344.227 0.3166999999999973
344.539 0.21669999999999945
344.849 0.2333999999999996
345.16 0.2333999999999996
345.472 0.29999999999999716
345.784 0.1999999999999993
346.093 0.3166999999999973
346.405 0.2834000000000003
346.717 0.26670000000000016
347.028 0.3333999999999975
347.338 0.34999999999999787
347.649 0.25
347.961 0.41669999999999874
348.271 0.3166999999999973
348.582 0.34999999999999787
348.894 0.3333999999999975
349.205 0.366699999999998
349.515 0.2333999999999996
349.826 0.366699999999998
350.138 0.26670000000000016
350.447 0.16669999999999874
350.759 0.2333999999999996
351.07 0.3166999999999973
351.38 0.26670000000000016
351.691 0.26670000000000016
352.003 0.2333999999999996
352.312 0.21669999999999945
352.624 0.2834000000000003
352.935 0.26670000000000016
353.245 0.1999999999999993
353.556 0.1833999999999989
353.867 0.366699999999998
354.177 0.26670000000000016
354.488 0.26670000000000016
354.799 0.366699999999998
355.109 0.2834000000000003
355.42 0.1999999999999993
355.732 0.25
356.041 0.29999999999999716
356.352 0.29999999999999716
356.663 0.26670000000000016
356.973 0.25
357.284 0.25
357.593 0.2333999999999996
357.905 0.21669999999999945
358.216 0.25
358.525 0.16669999999999874
358.836 0.1999999999999993
359.147 0.34999999999999787
359.457 0.3166999999999973
359.768 0.2333999999999996
360.077 0.1833999999999989
360.388 0.26670000000000016
360.699 0.29999999999999716
361.008 0.21669999999999945
361.32 0.14999999999999858
361.629 0.366699999999998
361.94 0.1999999999999993
362.251 0.16669999999999874
362.56 0.29999999999999716
362.871 0.1999999999999993
363.18 0.3166999999999973
363.491 0.25
363.8 0.1999999999999993
364.111 0.29999999999999716
364.422 0.3166999999999973
364.731 0.2333999999999996
365.042 0.25
365.351 0.3333999999999975
365.662 0.2333999999999996
365.971 0.366699999999998
366.282 0.25
366.593 0.2333999999999996
366.902 0.34999999999999787
367.213 0.2333999999999996
367.522 0.21669999999999945
367.833 0.29999999999999716
368.142 0.3166999999999973
368.453 0.29999999999999716
368.762 0.2834000000000003
369.073 0.1333999999999982
369.381 0.2834000000000003
369.692 0.14999999999999858
370.001 0.3166999999999973
370.312 0.29999999999999716
370.623 0.25
370.932 0.1999999999999993
371.242 0.2834000000000003
371.551 0.25
371.862 0.3166999999999973
372.171 0.29999999999999716
372.482 0.2834000000000003
372.79 0.16669999999999874
373.101 0.29999999999999716
373.41 0.16669999999999874
373.721 0.1999999999999993
374.029 0.3333999999999975
374.34 0.09999999999999787
374.649 0.3333999999999975
374.959 0.2834000000000003
375.268 0.3333999999999975
375.577 0.3333999999999975
375.887 0.14999999999999858
376.196 0.2834000000000003
376.506 0.34999999999999787
376.815 0.29999999999999716
377.126 0.1999999999999993
377.434 0.3166999999999973
377.745 0.16669999999999874
378.053 0.25
378.364 0.3166999999999973
378.672 0.21669999999999945
378.983 0.3333999999999975
379.292 0.1999999999999993
379.6 0.21669999999999945
379.911 0.21669999999999945
380.219 0.3333999999999975
380.53 0.2333999999999996
380.838 0.34999999999999787
381.148 0.1333999999999982
381.457 0.1999999999999993
381.767 0.21669999999999945
382.076 0.1833999999999989
382.384 0.25
382.695 0.2333999999999996
383.003 0.21669999999999945
383.313 0.2834000000000003
383.622 0.16669999999999874
383.93 0.25
384.24 0.1833999999999989
384.549 0.3333999999999975
384.859 0.2834000000000003
385.167 0.2834000000000003
385.476 0.25
385.786 0.2834000000000003
386.094 0.21669999999999945
386.405 0.29999999999999716
386.713 0.26670000000000016
387.021 0.29999999999999716
387.331 0.1999999999999993
387.64 0.29999999999999716
387.948 0.25
388.258 0.34999999999999787
388.566 0.1833999999999989
388.877 0.34999999999999787
389.185 0.26670000000000016
389.493 0.3166999999999973
389.803 0.26670000000000016
390.111 0.26670000000000016
390.419 0.1833999999999989
390.729 0.25
391.038 0.26670000000000016
391.346 0.21669999999999945
391.656 0.26670000000000016
391.964 0.29999999999999716
392.272 0.2834000000000003
392.582 0.26670000000000016
392.89 0.1999999999999993
393.198 0.366699999999998
393.508 0.2333999999999996
393.816 0.3333999999999975
394.124 0.2333999999999996
394.434 0.366699999999998
394.742 0.34999999999999787
395.05 0.2333999999999996
395.36 0.4333999999999989
395.668 0.29999999999999716
395.976 0.29999999999999716
396.286 0.3166999999999973
396.594 0.34999999999999787
396.902 0.3166999999999973
397.21 0.366699999999998
397.52 0.3166999999999973
397.828 0.29999999999999716
398.135 0.25
398.445 0.366699999999998
398.753 0.2333999999999996
399.061 0.29999999999999716
399.369 0.1999999999999993
399.679 0.3333999999999975
399.987 0.25
400.294 0.25
400.604 0.26670000000000016
400.912 0.3333999999999975
401.22 0.26670000000000016
401.527 0.29999999999999716
401.837 0.2333999999999996
402.145 0.21669999999999945
402.453 0.29999999999999716
402.76 0.26670000000000016
403.07 0.3166999999999973
403.378 0.3333999999999975
403.686 0.3333999999999975
403.993 0.1999999999999993
404.303 0.25
404.611 0.26670000000000016
404.918 0.26670000000000016
405.226 0.3166999999999973
405.533 0.3166999999999973
405.843 0.2834000000000003
406.151 0.3166999999999973
406.458 0.3166999999999973
406.766 0.29999999999999716
407.076 0.3166999999999973
407.383 0.2834000000000003
407.691 0.2834000000000003
407.998 0.2333999999999996
408.306 0.3333999999999975
408.615 0.3333999999999975
408.923 0.3166999999999973
409.23 0.26670000000000016
409.538 0.29999999999999716
409.845 0.41669999999999874
410.153 0.41669999999999874
410.462 0.3833999999999982
410.77 0.4333999999999989
411.077 0.29999999999999716
411.384 0.3833999999999982
411.692 0.29999999999999716
412.001 0.3999999999999986
412.309 0.3333999999999975
412.616 0.3833999999999982
412.923 0.4333999999999989
413.231 0.3833999999999982
413.538 0.3999999999999986
413.845 0.3999999999999986
414.155 0.5833999999999975
414.462 0.4333999999999989
414.769 0.5334000000000003
415.077 0.4499999999999993
415.384 0.4499999999999993
415.691 0.3833999999999982
415.999 0.5
416.308 0.5
416.615 0.5
416.922 0.5
417.23 0.616699999999998
417.537 0.5334000000000003
417.844 0.6333999999999982
418.151 0.616699999999998
418.458 0.6499999999999986
418.768 0.5
419.075 0.6833999999999989
419.382 0.8333999999999975
419.689 0.616699999999998
419.996 0.9166999999999987
420.303 0.5999999999999979
420.61 0.8333999999999975
420.918 0.9333999999999989
421.225 0.7333999999999996
421.532 1.0167000000000002
421.841 0.9166999999999987
422.148 1.1499999999999986
422.455 1.183399999999999
422.762 1.25
423.069 1.2834000000000003
423.376 1.183399999999999
423.683 1.5666999999999973
423.99 1.116699999999998
424.297 1.5167000000000002
424.604 1.2667000000000002
424.911 1.433399999999999
425.218 1.3166999999999973
425.525 1.5334000000000003
425.832 1.5499999999999972
426.139 1.4666999999999994
426.446 1.5499999999999972
426.753 1.3833999999999982
427.061 1.5833999999999975
427.368 1.5167000000000002
427.675 1.433399999999999
427.982 1.1999999999999993
428.289 1.2834000000000003
428.596 1.2999999999999972
428.903 1.1499999999999986
429.209 1.2333999999999996
429.516 1.25
429.823 1.1999999999999993
430.13 1.0334000000000003
430.437 1.116699999999998
430.743 0.9333999999999989
431.05 1.0499999999999972
431.357 0.9166999999999987
431.664 0.8499999999999979
431.97 0.7667000000000002
432.277 0.7667000000000002
432.584 0.7166999999999994
432.891 0.6666999999999987
433.197 0.5334000000000003
433.504 0.6833999999999989
433.811 0.6833999999999989
434.117 0.5499999999999972
434.424 0.7333999999999996
434.731 0.7166999999999994
435.037 0.4333999999999989
435.344 0.5334000000000003
435.65 0.5334000000000003
435.957 0.4833999999999996
436.262 0.5167000000000002
436.568 0.4333999999999989
436.875 0.34999999999999787
437.181 0.3999999999999986
437.488 0.5
437.794 0.34999999999999787
438.101 0.5499999999999972
438.407 0.366699999999998
438.714 0.46669999999999945
439.02 0.4833999999999996
439.327 0.4333999999999989
439.633 0.3999999999999986
439.94 0.4499999999999993
440.246 0.3833999999999982
440.553 0.3833999999999982
440.859 0.366699999999998
441.163 0.4333999999999989
441.47 0.3333999999999975
441.776 0.4499999999999993
442.083 0.5
442.389 0.3333999999999975
442.695 0.3999999999999986
443.002 0.2834000000000003
443.308 0.4499999999999993
443.614 0.46669999999999945
443.921 0.25
444.225 0.3999999999999986
444.531 0.4499999999999993
444.838 0.3833999999999982
445.144 0.4333999999999989
445.45 0.29999999999999716
445.757 0.46669999999999945
446.063 0.3166999999999973
446.369 0.29999999999999716
446.675 0.4499999999999993
446.979 0.2834000000000003
447.286 0.5
447.592 0.46669999999999945
447.898 0.41669999999999874
448.204 0.3833999999999982
448.51 0.3833999999999982
448.817 0.366699999999998
449.121 0.34999999999999787
449.427 0.3999999999999986
449.733 0.46669999999999945
450.039 0.41669999999999874
450.345 0.5167000000000002
450.651 0.3999999999999986
450.955 0.5
451.261 0.4499999999999993
451.568 0.2834000000000003
451.874 0.366699999999998
452.18 0.366699999999998
452.486 0.34999999999999787
452.79 0.46669999999999945
453.096 0.3166999999999973
453.402 0.29999999999999716
453.708 0.29999999999999716
454.014 0.3999999999999986
454.318 0.366699999999998
454.624 0.3833999999999982
454.93 0.3333999999999975
455.236 0.4333999999999989
455.541 0.3333999999999975
455.845 0.3333999999999975
456.151 0.2834000000000003
456.457 0.3333999999999975
456.763 0.2834000000000003
457.067 0.2834000000000003
457.373 0.29999999999999716
457.679 0.1833999999999989
457.985 0.34999999999999787
458.29 0.3999999999999986
458.594 0.25
458.9 0.29999999999999716
459.206 0.29999999999999716
459.512 0.2834000000000003
459.815 0.3999999999999986
460.121 0.3166999999999973
460.427 0.1999999999999993
460.733 0.26670000000000016
461.036 0.2834000000000003
461.342 0.2834000000000003
461.648 0.2834000000000003
461.954 0.3833999999999982
462.257 0.29999999999999716
462.563 0.3166999999999973
462.869 0.2834000000000003
463.172 0.34999999999999787
463.478 0.25
463.784 0.2834000000000003
464.089 0.26670000000000016
464.393 0.1999999999999993
464.699 0.34999999999999787
465.004 0.29999999999999716
465.308 0.29999999999999716
465.613 0.26670000000000016
465.919 0.2834000000000003
466.225 0.2834000000000003
466.528 0.3833999999999982
466.834 0.2834000000000003
467.139 0.29999999999999716
467.443 0.3166999999999973
467.748 0.2834000000000003
468.054 0.25
468.357 0.29999999999999716
468.663 0.4333999999999989
468.968 0.366699999999998
469.272 0.26670000000000016
469.577 0.2333999999999996
469.883 0.25
470.186 0.3999999999999986
470.492 0.3166999999999973
470.797 0.3833999999999982
471.1 0.3833999999999982
471.406 0.3333999999999975
471.711 0.25
472.014 0.25
472.32 0.366699999999998
472.625 0.2333999999999996
472.929 0.29999999999999716
473.234 0.21669999999999945
473.539 0.34999999999999787
473.843 0.3833999999999982
474.148 0.3166999999999973
474.451 0.4333999999999989
474.756 0.3166999999999973
475.062 0.3999999999999986
475.365 0.4333999999999989
475.67 0.29999999999999716
475.973 0.3333999999999975
476.279 0.3999999999999986
476.584 0.41669999999999874
476.887 0.5167000000000002
477.192 0.366699999999998
477.498 0.5167000000000002
477.801 0.616699999999998
478.106 0.6999999999999993
478.409 0.6833999999999989
478.714 0.8333999999999975
479.017 0.866699999999998
479.322 0.7834000000000003
479.628 0.8333999999999975
479.931 0.6499999999999986
480.236 0.75
480.539 0.7667000000000002
480.844 0.8999999999999986
481.147 0.7999999999999972
481.452 0.6999999999999993
481.757 0.7999999999999972
482.06 0.9499999999999993
482.365 0.7333999999999996
482.668 0.8999999999999986
482.973 0.7333999999999996
483.276 0.6666999999999987
483.581 0.8333999999999975
483.884 0.5999999999999979
484.189 0.5
484.494 0.5167000000000002
484.797 0.5666999999999973
485.102 0.5
485.405 0.4833999999999996
485.71 0.5167000000000002
486.013 0.366699999999998
486.318 0.3999999999999986
486.621 0.4333999999999989
486.925 0.41669999999999874
487.228 0.3999999999999986
487.533 0.366699999999998
487.836 0.25
488.141 0.34999999999999787
488.444 0.29999999999999716
488.748 0.2834000000000003
489.051 0.26670000000000016
489.356 0.21669999999999945
489.659 0.366699999999998
489.964 0.3999999999999986
490.266 0.34999999999999787
490.571 0.366699999999998
490.874 0.21669999999999945
491.179 0.4499999999999993
491.481 0.29999999999999716
491.786 0.3999999999999986
492.089 0.25
492.393 0.2834000000000003
492.696 0.26670000000000016
493.001 0.29999999999999716
493.303 0.26670000000000016
493.606 0.2834000000000003
493.911 0.2333999999999996
494.213 0.29999999999999716
494.518 0.3166999999999973
494.821 0.2834000000000003
495.125 0.2834000000000003
495.428 0.34999999999999787
495.732 0.2333999999999996
496.035 0.1999999999999993
496.337 0.3999999999999986
496.642 0.34999999999999787
496.945 0.2333999999999996
497.249 0.4833999999999996
497.552 0.26670000000000016
497.856 0.3166999999999973
498.159 0.21669999999999945
498.461 0.25
498.766 0.2333999999999996
499.068 0.1999999999999993
499.372 0.3833999999999982
499.675 0.29999999999999716
499.977 0.2834000000000003
500.282 0.25
500.584 0.16669999999999874
500.889 0.25
501.191 0.21669999999999945
501.493 0.25
501.798 0.3166999999999973
502.1 0.21669999999999945
502.402 0.26670000000000016
502.707 0.3333999999999975
503.009 0.29999999999999716
503.314 0.366699999999998
503.616 0.26670000000000016
503.918 0.25
504.222 0.34999999999999787
504.525 0.14999999999999858
504.827 0.29999999999999716
505.131 0.3333999999999975
505.433 0.26670000000000016
505.736 0.2333999999999996
506.04 0.34999999999999787
506.342 0.3166999999999973
506.646 0.3333999999999975
506.949 0.3166999999999973
507.251 0.34999999999999787
507.555 0.29999999999999716
507.857 0.3166999999999973
508.159 0.26670000000000016
508.461 0.3166999999999973
508.766 0.1333999999999982
509.068 0.25
509.37 0.21669999999999945
509.674 0.3166999999999973
509.976 0.4833999999999996
510.278 0.1999999999999993
510.582 0.3999999999999986
510.884 0.21669999999999945
511.186 0.21669999999999945
511.49 0.3166999999999973
511.792 0.25
512.094 0.21669999999999945
512.396 0.26670000000000016
512.701 0.16669999999999874
513.003 0.26670000000000016
513.305 0.2333999999999996
513.609 0.2333999999999996
513.91 0.26670000000000016
514.212 0.26670000000000016
514.514 0.29999999999999716
514.818 0.14999999999999858
515.12 0.366699999999998
515.422 0.2834000000000003
515.724 0.3166999999999973
516.028 0.3166999999999973
516.33 0.2834000000000003
516.632 0.2834000000000003
516.934 0.2333999999999996
517.237 0.21669999999999945
517.539 0.26670000000000016
517.841 0.3166999999999973
518.143 0.3166999999999973
518.447 0.2333999999999996
518.749 0.2834000000000003
519.05 0.3333999999999975
519.352 0.3166999999999973
519.656 0.3333999999999975
519.958 0.2834000000000003
520.26 0.21669999999999945
520.561 0.3166999999999973
520.863 0.3166999999999973
521.167 0.21669999999999945
521.468 0.26670000000000016
521.77 0.2333999999999996
522.072 0.34999999999999787
522.376 0.29999999999999716
522.677 0.21669999999999945
522.979 0.29999999999999716
523.281 0.2834000000000003
523.582 0.29999999999999716
523.884 0.366699999999998
524.187 0.29999999999999716
524.489 0.34999999999999787
524.791 0.34999999999999787
525.092 0.3333999999999975
525.394 0.3333999999999975
525.697 0.3333999999999975
525.999 0.4333999999999989
526.301 0.41669999999999874
526.602 0.366699999999998
526.904 0.41669999999999874
527.205 0.4333999999999989
527.507 0.2333999999999996
527.81 0.34999999999999787
528.112 0.34999999999999787
528.413 0.1999999999999993
528.715 0.41669999999999874
529.016 0.1833999999999989
529.318 0.29999999999999716
529.619 0.3166999999999973
529.922 0.29999999999999716
530.224 0.34999999999999787
530.525 0.3333999999999975
530.827 0.3833999999999982
531.128 0.29999999999999716
531.429 0.3333999999999975
531.731 0.366699999999998
532.032 0.21669999999999945
532.336 0.1833999999999989
532.637 0.3166999999999973
532.938 0.3166999999999973
533.24 0.26670000000000016
533.541 0.26670000000000016
533.842 0.2834000000000003
534.143 0.25
534.445 0.25
534.746 0.3833999999999982
535.047 0.2834000000000003
535.351 0.3833999999999982
535.652 0.3166999999999973
535.953 0.29999999999999716
536.254 0.25
536.555 0.3166999999999973
536.857 0.29999999999999716
537.158 0.26670000000000016
537.459 0.29999999999999716
537.76 0.29999999999999716
538.061 0.34999999999999787
538.362 0.3333999999999975
538.664 0.3166999999999973
538.965 0.2834000000000003
539.266 0.366699999999998
539.567 0.29999999999999716
539.868 0.29999999999999716
540.169 0.34999999999999787
540.472 0.366699999999998
540.773 0.21669999999999945
541.074 0.3333999999999975
541.375 0.3833999999999982
541.677 0.29999999999999716
541.978 0.366699999999998
542.279 0.3166999999999973
542.58 0.3166999999999973
542.881 0.2834000000000003
543.182 0.46669999999999945
543.483 0.2834000000000003
543.784 0.366699999999998
544.085 0.3166999999999973
544.385 0.3833999999999982
544.686 0.2333999999999996
544.987 0.3166999999999973
545.288 0.3166999999999973
545.589 0.34999999999999787
545.89 0.3999999999999986
546.191 0.34999999999999787
546.492 0.29999999999999716
546.793 0.34999999999999787
547.094 0.3833999999999982
547.394 0.29999999999999716
547.695 0.34999999999999787
547.996 0.366699999999998
548.297 0.4333999999999989
548.596 0.3333999999999975
548.897 0.5499999999999972
549.197 0.3166999999999973
549.498 0.4333999999999989
549.799 0.34999999999999787
550.1 0.4333999999999989
550.4 0.4333999999999989
550.701 0.3833999999999982
551.002 0.3999999999999986
551.303 0.5
551.603 0.4499999999999993
551.904 0.4333999999999989
552.205 0.46669999999999945
552.505 0.46669999999999945
552.806 0.5499999999999972
553.107 0.3833999999999982
553.407 0.5999999999999979
553.706 0.5334000000000003
554.007 0.616699999999998
554.307 0.46669999999999945
554.608 0.46669999999999945
554.909 0.6333999999999982
555.209 0.4499999999999993
555.51 0.5
555.81 0.5334000000000003
556.111 0.5167000000000002
556.411 0.5999999999999979
556.71 0.6333999999999982
557.01 0.4833999999999996
557.311 0.4499999999999993
557.612 0.5666999999999973
557.912 0.5
558.213 0.3999999999999986
558.513 0.4499999999999993
558.813 0.46669999999999945
559.112 0.4833999999999996
559.412 0.46669999999999945
559.713 0.5
560.013 0.5499999999999972
560.314 0.5999999999999979
560.614 0.5167000000000002
560.914 0.4499999999999993
561.213 0.34999999999999787
561.513 0.3999999999999986
561.814 0.41669999999999874
562.114 0.4333999999999989
562.414 0.46669999999999945
562.715 0.21669999999999945
563.015 0.41669999999999874
563.313 0.41669999999999874
563.614 0.366699999999998
563.914 0.3999999999999986
564.214 0.1999999999999993
564.515 0.366699999999998
564.813 0.3333999999999975
565.113 0.3999999999999986
565.413 0.29999999999999716
565.714 0.3166999999999973
566.014 0.4333999999999989
566.312 0.3166999999999973
566.612 0.2333999999999996
566.912 0.5
567.213 0.3333999999999975
567.513 0.3166999999999973
567.811 0.2834000000000003
568.111 0.3999999999999986
568.411 0.2834000000000003
568.712 0.2834000000000003
569.012 0.3999999999999986
569.31 0.366699999999998
569.61 0.25
569.91 0.2333999999999996
570.21 0.34999999999999787
570.508 0.3833999999999982
570.808 0.34999999999999787
571.108 0.29999999999999716
571.408 0.3333999999999975
571.706 0.366699999999998
572.006 0.25
572.306 0.2333999999999996
572.607 0.34999999999999787
572.904 0.2333999999999996
573.204 0.26670000000000016
573.505 0.366699999999998
573.805 0.3333999999999975
574.102 0.34999999999999787
574.402 0.2834000000000003
574.702 0.29999999999999716
575.002 0.34999999999999787
575.3 0.3166999999999973
575.6 0.14999999999999858
575.9 0.2834000000000003
576.198 0.2834000000000003
576.498 0.26670000000000016
576.798 0.25
577.098 0.34999999999999787
577.395 0.25
577.695 0.21669999999999945
577.995 0.3333999999999975
578.293 0.26670000000000016
578.593 0.29999999999999716
578.893 0.34999999999999787
579.19 0.3833999999999982
579.49 0.25
579.79 0.3333999999999975
580.088 0.4333999999999989
580.387 0.1833999999999989
580.687 0.366699999999998
580.985 0.3333999999999975
581.285 0.3333999999999975
581.584 0.2834000000000003
581.882 0.3999999999999986
582.182 0.29999999999999716
582.482 0.3333999999999975
582.779 0.16669999999999874
583.079 0.2834000000000003
583.378 0.366699999999998
583.676 0.3999999999999986
583.976 0.26670000000000016
584.275 0.2333999999999996
584.573 0.3999999999999986
584.873 0.3333999999999975
585.17 0.21669999999999945
585.47 0.29999999999999716
585.769 0.1999999999999993
586.067 0.34999999999999787
586.367 0.26670000000000016
586.666 0.366699999999998
586.964 0.3166999999999973
587.263 0.34999999999999787
587.561 0.1833999999999989
587.86 0.2834000000000003
588.16 0.2333999999999996
588.457 0.3333999999999975
588.757 0.3166999999999973
589.054 0.41669999999999874
589.354 0.3333999999999975
589.653 0.3166999999999973
589.951 0.366699999999998
590.25 0.21669999999999945
590.547 0.3333999999999975
590.847 0.29999999999999716
591.144 0.2333999999999996
591.444 0.3999999999999986
591.743 0.21669999999999945
592.04 0.366699999999998
592.34 0.25
592.637 0.3333999999999975
592.936 0.3833999999999982
593.234 0.2834000000000003
593.533 0.2834000000000003
593.832 0.3333999999999975
594.13 0.366699999999998
594.429 0.3333999999999975
594.726 0.3166999999999973
595.026 0.366699999999998
595.323 0.16669999999999874
595.622 0.3333999999999975
595.919 0.3166999999999973
596.219 0.366699999999998
596.516 0.3833999999999982
596.815 0.3333999999999975
597.112 0.34999999999999787
597.411 0.3833999999999982
597.709 0.366699999999998
598.008 0.3833999999999982
598.305 0.21669999999999945
598.604 0.3833999999999982
598.901 0.3333999999999975
599.2 0.2333999999999996
599.497 0.366699999999998
599.797 0.2333999999999996
600.094 0.29999999999999716
600.393 0.366699999999998
600.69 0.3166999999999973
600.989 0.3333999999999975
601.286 0.29999999999999716
601.585 0.41669999999999874
601.882 0.2834000000000003
602.181 0.3166999999999973
602.478 0.46669999999999945
602.777 0.3833999999999982
603.074 0.34999999999999787
603.373 0.3999999999999986
603.67 0.2333999999999996
603.969 0.26670000000000016
604.266 0.34999999999999787
604.563 0.41669999999999874
604.862 0.34999999999999787
605.159 0.3833999999999982
605.458 0.4499999999999993
605.755 0.2333999999999996
606.054 0.41669999999999874
606.351 0.26670000000000016
606.65 0.29999999999999716
606.946 0.3833999999999982
607.243 0.2834000000000003
607.542 0.4499999999999993
607.839 0.3833999999999982
608.138 0.29999999999999716
608.435 0.26670000000000016
608.732 0.3333999999999975
609.03 0.4499999999999993
609.327 0.3333999999999975
609.626 0.4499999999999993
609.923 0.3833999999999982
610.22 0.366699999999998
610.518 0.3833999999999982
610.815 0.366699999999998
611.114 0.46669999999999945
611.411 0.41669999999999874
611.707 0.3166999999999973
612.006 0.3999999999999986
612.303 0.366699999999998
612.601 0.4333999999999989
612.898 0.3833999999999982
613.195 0.5334000000000003
613.493 0.5334000000000003
613.79 0.3999999999999986
614.087 0.29999999999999716
614.385 0.3999999999999986
614.682 0.3999999999999986
614.979 0.46669999999999945
615.277 0.34999999999999787
615.574 0.34999999999999787
615.87 0.3833999999999982
616.169 0.3333999999999975
616.466 0.4833999999999996
616.764 0.29999999999999716
617.061 0.3166999999999973
617.357 0.3999999999999986
617.656 0.3999999999999986
617.952 0.34999999999999787
618.249 0.2834000000000003
618.545 0.366699999999998
618.844 0.2834000000000003
619.14 0.3166999999999973
619.437 0.26670000000000016
619.735 0.5
620.032 0.41669999999999874
620.328 0.3333999999999975
620.626 0.2333999999999996
620.923 0.41669999999999874
621.219 0.29999999999999716
621.518 0.3999999999999986
621.814 0.25
622.11 0.21669999999999945
622.407 0.366699999999998
622.705 0.3166999999999973
623.002 0.29999999999999716
623.298 0.1833999999999989
623.594 0.3166999999999973
623.893 0.29999999999999716
624.189 0.29999999999999716
624.485 0.3833999999999982
624.784 0.1999999999999993
625.08 0.25
625.376 0.41669999999999874
625.672 0.2333999999999996
625.971 0.4833999999999996
626.267 0.29999999999999716
626.563 0.3333999999999975
626.859 0.3333999999999975
627.158 0.3166999999999973
627.454 0.3333999999999975
627.75 0.29999999999999716
628.046 0.29999999999999716
628.342 0.25
628.641 0.21669999999999945
628.937 0.2834000000000003
629.233 0.2333999999999996
629.529 0.2834000000000003
629.827 0.09999999999999787
630.123 0.34999999999999787
630.419 0.3333999999999975
630.715 0.3166999999999973
631.011 0.366699999999998
631.31 0.366699999999998
631.606 0.3166999999999973
631.902 0.41669999999999874
632.198 0.3166999999999973
632.494 0.1999999999999993
632.792 0.3166999999999973
633.088 0.21669999999999945
633.384 0.34999999999999787
633.68 0.2834000000000003
633.976 0.34999999999999787
634.272 0.25
634.57 0.29999999999999716
634.866 0.3333999999999975
635.162 0.3166999999999973
635.458 0.2834000000000003
635.754 0.26670000000000016
636.05 0.26670000000000016
636.347 0.29999999999999716
636.643 0.16669999999999874
636.939 0.366699999999998
637.235 0.3333999999999975
637.531 0.2834000000000003
637.827 0.3833999999999982
638.123 0.1999999999999993
638.421 0.3333999999999975
638.716 0.2333999999999996
639.012 0.3166999999999973
639.308 0.25
639.604 0.26670000000000016
639.9 0.25
640.195 0.3166999999999973
640.491 0.2834000000000003
640.789 0.2333999999999996
641.085 0.21669999999999945
641.381 0.34999999999999787
641.676 0.25
641.972 0.366699999999998
642.268 0.2834000000000003
642.563 0.2834000000000003
642.859 0.2834000000000003
643.155 0.2834000000000003
643.451 0.26670000000000016
643.746 0.3166999999999973
644.044 0.26670000000000016
644.34 0.3333999999999975
644.635 0.3166999999999973
644.931 0.2834000000000003
645.227 0.4833999999999996
645.522 0.3166999999999973
645.818 0.2834000000000003
646.113 0.3333999999999975
646.409 0.3166999999999973
646.704 0.3166999999999973
647.0 0.3166999999999973
647.296 0.3833999999999982
647.591 0.34999999999999787
647.887 0.34999999999999787
648.182 0.366699999999998
648.478 0.3333999999999975
648.773 0.34999999999999787
649.069 0.3833999999999982
649.366 0.3833999999999982
649.662 0.3166999999999973
649.957 0.3166999999999973
650.253 0.34999999999999787
650.548 0.3166999999999973
650.844 0.3999999999999986
651.139 0.4833999999999996
651.434 0.34999999999999787
651.73 0.29999999999999716
652.025 0.3333999999999975
652.321 0.366699999999998
652.616 0.29999999999999716
652.911 0.3833999999999982
653.207 0.41669999999999874
653.502 0.3166999999999973
653.797 0.41669999999999874
654.093 0.3833999999999982
654.388 0.366699999999998
654.683 0.4499999999999993
654.979 0.4333999999999989
655.274 0.2834000000000003
655.567 0.4333999999999989
655.863 0.3166999999999973
656.158 0.3999999999999986
656.453 0.4333999999999989
656.748 0.41669999999999874
657.044 0.5833999999999975
657.339 0.34999999999999787
657.634 0.5833999999999975
657.929 0.4833999999999996
658.224 0.7166999999999994
658.52 0.5499999999999972
658.815 0.5
659.11 0.5334000000000003
659.405 0.5999999999999979
659.7 0.5999999999999979
659.995 0.4833999999999996
660.291 0.616699999999998
660.586 0.4833999999999996
660.879 0.6333999999999982
661.174 0.6833999999999989
661.469 0.5499999999999972
661.764 0.6499999999999986
662.059 0.6999999999999993
662.354 0.5999999999999979
662.649 0.46669999999999945
662.944 0.7333999999999996
663.239 0.46669999999999945
663.534 0.46669999999999945
663.83 0.5499999999999972
664.122 0.46669999999999945
664.417 0.3999999999999986
664.713 0.46669999999999945
665.008 0.6833999999999989
665.302 0.4833999999999996
665.597 0.5
665.892 0.4499999999999993
666.187 0.5167000000000002
666.48 0.4333999999999989
666.775 0.4499999999999993
667.07 0.4499999999999993
667.365 0.4499999999999993
667.66 0.5167000000000002
667.955 0.29999999999999716
668.25 0.46669999999999945
668.542 0.41669999999999874
668.837 0.3333999999999975
669.132 0.41669999999999874
669.427 0.3999999999999986
669.722 0.3833999999999982
670.017 0.366699999999998
670.31 0.34999999999999787
670.604 0.34999999999999787
670.899 0.5334000000000003
671.194 0.366699999999998
671.489 0.4333999999999989
671.783 0.3166999999999973
672.076 0.4499999999999993
672.371 0.3833999999999982
672.666 0.26670000000000016
672.96 0.3833999999999982
673.255 0.3999999999999986
673.548 0.3999999999999986
673.842 0.3166999999999973
674.137 0.3833999999999982
674.432 0.34999999999999787
674.727 0.34999999999999787
675.019 0.5
675.314 0.2834000000000003
675.608 0.3333999999999975
675.903 0.3833999999999982
676.196 0.21669999999999945
676.49 0.34999999999999787
676.785 0.34999999999999787
677.079 0.3833999999999982
677.374 0.2333999999999996
677.667 0.25
677.961 0.3333999999999975
678.256 0.3833999999999982
678.55 0.366699999999998
678.843 0.3333999999999975
679.137 0.3833999999999982
679.432 0.3999999999999986
679.726 0.26670000000000016
680.019 0.29999999999999716
680.313 0.3166999999999973
680.608 0.3166999999999973
680.902 0.3833999999999982
681.195 0.29999999999999716
681.489 0.2834000000000003
681.784 0.41669999999999874
682.076 0.21669999999999945
682.37 0.2834000000000003
682.665 0.2834000000000003
682.959 0.3166999999999973
683.252 0.3833999999999982
683.546 0.3166999999999973
683.84 0.3833999999999982
684.133 0.34999999999999787
684.427 0.3166999999999973
684.721 0.2333999999999996
685.014 0.29999999999999716
685.308 0.3333999999999975
685.602 0.1833999999999989
685.895 0.41669999999999874
686.189 0.29999999999999716
686.483 0.366699999999998
686.778 0.3999999999999986
687.07 0.16669999999999874
687.364 0.3166999999999973
687.658 0.3333999999999975
687.951 0.2834000000000003
688.245 0.2834000000000003
688.537 0.34999999999999787
688.831 0.1833999999999989
689.125 0.29999999999999716
689.418 0.29999999999999716
689.712 0.26670000000000016
690.006 0.25
690.298 0.21669999999999945
690.592 0.4333999999999989
690.886 0.34999999999999787
691.178 0.3333999999999975
691.473 0.26670000000000016
691.767 0.366699999999998
692.059 0.29999999999999716
692.353 0.29999999999999716
692.645 0.1833999999999989
692.939 0.26670000000000016
693.233 0.34999999999999787
693.525 0.366699999999998
693.819 0.366699999999998
694.111 0.2834000000000003
694.405 0.34999999999999787
694.699 0.21669999999999945
694.991 0.3166999999999973
695.285 0.2333999999999996
695.577 0.3166999999999973
695.871 0.34999999999999787
696.165 0.2834000000000003
696.457 0.2333999999999996
696.751 0.25
697.043 0.3333999999999975
697.337 0.2333999999999996
697.629 0.29999999999999716
697.923 0.2834000000000003
698.217 0.3166999999999973
698.509 0.3999999999999986
698.802 0.25
699.094 0.25
699.388 0.34999999999999787
699.68 0.21669999999999945
699.974 0.2834000000000003
700.266 0.41669999999999874
700.56 0.3333999999999975
700.853 0.29999999999999716
701.145 0.3333999999999975
701.439 0.3333999999999975
701.731 0.2834000000000003
702.025 0.34999999999999787
702.316 0.2834000000000003
702.61 0.366699999999998
702.902 0.3333999999999975
703.196 0.25
703.487 0.41669999999999874
703.781 0.3166999999999973
704.073 0.29999999999999716
704.367 0.2834000000000003
704.658 0.1999999999999993
704.952 0.3333999999999975
705.244 0.26670000000000016
705.537 0.25
705.829 0.2834000000000003
706.122 0.1833999999999989
706.414 0.3166999999999973
706.708 0.2834000000000003
706.999 0.34999999999999787
707.293 0.2834000000000003
