# Created: 2019-11-28 13:05:43.843405
# rshift intensity
76.1738 0.26670000000000016
76.4989 0.3333999999999975
76.824 0.2834000000000003
77.1491 0.21669999999999945
77.4721 0.11669999999999803
77.7972 0.1833999999999989
78.1223 0.1333999999999982
78.4474 0.04999999999999716
78.7724 0.04999999999999716
79.0975 0.11669999999999803
79.4204 0.1833999999999989
79.7454 0.14999999999999858
80.0704 0.06669999999999732
80.3954 0.11669999999999803
80.7204 0.06669999999999732
81.0454 0.1833999999999989
81.3682 0.08339999999999748
81.6931 0.16669999999999874
82.0181 0.1333999999999982
82.343 0.08339999999999748
82.6679 0.08339999999999748
82.9907 0.09999999999999787
83.3156 0.1333999999999982
83.6405 0.09999999999999787
83.9654 0.09999999999999787
84.2903 0.11669999999999803
84.613 0.16669999999999874
84.9378 0.09999999999999787
85.2626 0.21669999999999945
85.5875 0.11669999999999803
85.9101 0.2333999999999996
86.2349 0.11669999999999803
86.5597 0.11669999999999803
86.8845 0.08339999999999748
87.2093 0.08339999999999748
87.5319 0.1999999999999993
87.8566 0.08339999999999748
88.1814 0.11669999999999803
88.5061 0.09999999999999787
88.8286 0.1333999999999982
89.1533 0.14999999999999858
89.478 0.08339999999999748
89.8027 0.09999999999999787
90.1252 0.09999999999999787
90.4499 0.06669999999999732
90.7745 0.1999999999999993
91.0992 0.06669999999999732
91.4216 0.08339999999999748
91.7462 0.1333999999999982
92.0708 0.04999999999999716
92.3954 0.14999999999999858
92.7179 0.08339999999999748
93.0424 0.08339999999999748
93.367 0.04999999999999716
93.6915 0.09999999999999787
94.0139 0.2333999999999996
94.3384 0.16669999999999874
94.6629 0.1833999999999989
94.9853 0.04999999999999716
95.3098 0.11669999999999803
95.6342 0.08339999999999748
95.9587 0.06669999999999732
96.281 0.1833999999999989
96.6055 0.03340000000000032
96.9299 0.1333999999999982
97.2522 0.11669999999999803
97.5766 0.08339999999999748
97.901 0.2333999999999996
98.2232 0.08339999999999748
98.5476 0.11669999999999803
98.8719 0.14999999999999858
99.1942 0.09999999999999787
99.5185 0.11669999999999803
99.8428 0.08339999999999748
100.165 0.09999999999999787
100.489 0.1999999999999993
100.814 0.14999999999999858
101.136 0.16669999999999874
101.46 0.06669999999999732
101.784 0.16669999999999874
102.106 0.08339999999999748
102.431 0.1333999999999982
102.755 0.16669999999999874
103.077 0.09999999999999787
103.401 0.2333999999999996
103.725 0.1333999999999982
104.047 0.21669999999999945
104.372 0.08339999999999748
104.696 0.1333999999999982
105.018 0.1999999999999993
105.342 0.14999999999999858
105.666 0.08339999999999748
105.988 0.16669999999999874
106.312 0.14999999999999858
106.634 0.25
106.958 0.16669999999999874
107.282 0.08339999999999748
107.604 0.1833999999999989
107.928 0.16669999999999874
108.252 0.09999999999999787
108.574 0.09999999999999787
108.898 0.11669999999999803
109.22 0.04999999999999716
109.544 0.06669999999999732
109.868 0.11669999999999803
110.19 0.14999999999999858
110.514 0.11669999999999803
110.836 0.1333999999999982
111.159 0.08339999999999748
111.483 0.16669999999999874
111.805 0.16669999999999874
112.129 0.08339999999999748
112.451 0.06669999999999732
112.775 0.08339999999999748
113.096 0.16669999999999874
113.42 0.06669999999999732
113.744 0.1833999999999989
114.066 0.14999999999999858
114.39 0.11669999999999803
114.711 0.09999999999999787
115.035 0.16669999999999874
115.357 0.03340000000000032
115.681 0.1333999999999982
116.004 0.1333999999999982
116.326 0.16669999999999874
116.65 0.01670000000000016
116.971 0.16669999999999874
117.295 0.06669999999999732
117.617 0.04999999999999716
117.94 0.1833999999999989
118.262 0.11669999999999803
118.586 0.26670000000000016
118.907 0.1333999999999982
119.231 0.08339999999999748
119.554 0.06669999999999732
119.876 0.08339999999999748
120.199 0.09999999999999787
120.521 0.09999999999999787
120.845 0.1333999999999982
121.166 0.14999999999999858
121.49 0.1333999999999982
121.811 0.1833999999999989
122.135 0.08339999999999748
122.456 0.09999999999999787
122.78 0.1333999999999982
123.101 0.11669999999999803
123.424 0.09999999999999787
123.746 0.11669999999999803
124.069 0.04999999999999716
124.391 0.14999999999999858
124.714 0.09999999999999787
125.035 0.06669999999999732
125.359 0.14999999999999858
125.68 0.1833999999999989
126.004 0.1333999999999982
126.325 0.1833999999999989
126.648 0.14999999999999858
126.97 0.0
127.291 0.11669999999999803
127.614 0.1333999999999982
127.935 0.11669999999999803
128.259 0.14999999999999858
128.58 0.11669999999999803
128.903 0.16669999999999874
129.224 0.11669999999999803
129.548 0.09999999999999787
129.869 0.1999999999999993
130.192 0.08339999999999748
130.513 0.1333999999999982
130.834 0.04999999999999716
131.158 0.11669999999999803
131.479 0.08339999999999748
131.802 0.14999999999999858
132.123 0.08339999999999748
132.446 0.1833999999999989
132.767 0.1333999999999982
133.09 0.1333999999999982
133.411 0.2333999999999996
133.733 0.14999999999999858
134.056 0.16669999999999874
134.377 0.11669999999999803
134.7 0.1833999999999989
135.021 0.14999999999999858
135.342 0.06669999999999732
135.665 0.16669999999999874
135.986 0.11669999999999803
136.309 0.11669999999999803
136.63 0.04999999999999716
136.951 0.1333999999999982
137.274 0.11669999999999803
137.595 0.14999999999999858
137.918 0.16669999999999874
138.238 0.1833999999999989
138.559 0.1833999999999989
138.882 0.1333999999999982
139.203 0.09999999999999787
139.526 0.14999999999999858
139.847 0.09999999999999787
140.168 0.21669999999999945
140.491 0.14999999999999858
140.811 0.1833999999999989
141.132 0.14999999999999858
141.455 0.11669999999999803
141.776 0.14999999999999858
142.097 0.1833999999999989
142.419 0.09999999999999787
142.74 0.2333999999999996
143.061 0.09999999999999787
143.384 0.16669999999999874
143.704 0.1999999999999993
144.027 0.16669999999999874
144.348 0.21669999999999945
144.668 0.1999999999999993
144.991 0.1833999999999989
145.312 0.11669999999999803
145.632 0.11669999999999803
145.955 0.1833999999999989
146.276 0.08339999999999748
146.596 0.16669999999999874
146.917 0.11669999999999803
147.24 0.21669999999999945
147.56 0.14999999999999858
147.881 0.2333999999999996
148.203 0.14999999999999858
148.524 0.14999999999999858
148.844 0.1999999999999993
149.167 0.09999999999999787
149.487 0.14999999999999858
149.808 0.04999999999999716
150.131 0.09999999999999787
150.451 0.21669999999999945
150.771 0.1999999999999993
151.092 0.14999999999999858
151.414 0.1333999999999982
151.735 0.1333999999999982
152.055 0.21669999999999945
152.378 0.1333999999999982
152.698 0.1333999999999982
153.018 0.2333999999999996
153.339 0.11669999999999803
153.661 0.16669999999999874
153.982 0.1333999999999982
154.302 0.06669999999999732
154.622 0.14999999999999858
154.945 0.11669999999999803
155.265 0.16669999999999874
155.585 0.16669999999999874
155.905 0.11669999999999803
156.228 0.1833999999999989
156.548 0.16669999999999874
156.868 0.25
157.188 0.14999999999999858
157.511 0.1833999999999989
157.831 0.11669999999999803
158.151 0.11669999999999803
158.471 0.14999999999999858
158.794 0.1333999999999982
159.114 0.1833999999999989
159.434 0.1333999999999982
159.754 0.1333999999999982
160.074 0.16669999999999874
160.396 0.06669999999999732
160.717 0.11669999999999803
161.037 0.11669999999999803
161.357 0.14999999999999858
161.679 0.08339999999999748
161.999 0.1333999999999982
162.319 0.16669999999999874
162.639 0.1333999999999982
162.959 0.11669999999999803
163.281 0.1999999999999993
163.601 0.08339999999999748
163.921 0.09999999999999787
164.241 0.1333999999999982
164.561 0.14999999999999858
164.881 0.1833999999999989
165.203 0.1333999999999982
165.523 0.21669999999999945
165.843 0.26670000000000016
166.163 0.16669999999999874
166.483 0.1833999999999989
166.803 0.14999999999999858
167.125 0.2333999999999996
167.445 0.1333999999999982
167.764 0.1833999999999989
168.084 0.1999999999999993
168.404 0.3333999999999975
168.724 0.21669999999999945
169.046 0.21669999999999945
169.366 0.21669999999999945
169.685 0.16669999999999874
170.005 0.11669999999999803
170.325 0.16669999999999874
170.645 0.11669999999999803
170.964 0.11669999999999803
171.286 0.09999999999999787
171.606 0.14999999999999858
171.926 0.1999999999999993
172.245 0.14999999999999858
172.565 0.1333999999999982
172.885 0.2333999999999996
173.204 0.21669999999999945
173.524 0.16669999999999874
173.846 0.25
174.166 0.14999999999999858
174.485 0.2834000000000003
174.805 0.1333999999999982
175.124 0.1999999999999993
175.444 0.1333999999999982
175.764 0.11669999999999803
176.083 0.11669999999999803
176.403 0.1833999999999989
176.722 0.09999999999999787
177.044 0.16669999999999874
177.363 0.11669999999999803
177.683 0.14999999999999858
178.002 0.14999999999999858
178.322 0.25
178.641 0.14999999999999858
178.961 0.16669999999999874
179.28 0.11669999999999803
179.6 0.1833999999999989
179.919 0.1999999999999993
180.239 0.11669999999999803
180.558 0.14999999999999858
180.877 0.16669999999999874
181.197 0.06669999999999732
181.516 0.25
181.838 0.11669999999999803
182.157 0.1333999999999982
182.476 0.1999999999999993
182.796 0.1333999999999982
183.115 0.16669999999999874
183.434 0.08339999999999748
183.754 0.2333999999999996
184.073 0.1333999999999982
184.392 0.11669999999999803
184.712 0.1833999999999989
185.031 0.1833999999999989
185.35 0.1999999999999993
185.669 0.16669999999999874
185.989 0.14999999999999858
186.308 0.1333999999999982
186.627 0.08339999999999748
186.946 0.1333999999999982
187.265 0.2333999999999996
187.585 0.1833999999999989
187.904 0.16669999999999874
188.223 0.08339999999999748
188.542 0.09999999999999787
188.861 0.25
189.18 0.06669999999999732
189.499 0.16669999999999874
189.818 0.09999999999999787
190.138 0.1833999999999989
190.457 0.14999999999999858
190.776 0.1333999999999982
191.095 0.08339999999999748
191.414 0.14999999999999858
191.733 0.16669999999999874
192.052 0.14999999999999858
192.371 0.1333999999999982
192.69 0.1833999999999989
193.009 0.16669999999999874
193.328 0.2333999999999996
193.647 0.08339999999999748
193.966 0.06669999999999732
194.285 0.1833999999999989
194.602 0.04999999999999716
194.92 0.2333999999999996
195.239 0.16669999999999874
195.558 0.16669999999999874
195.877 0.1833999999999989
196.196 0.14999999999999858
196.515 0.16669999999999874
196.834 0.11669999999999803
197.153 0.1833999999999989
197.471 0.16669999999999874
197.79 0.11669999999999803
198.109 0.08339999999999748
198.428 0.08339999999999748
198.747 0.06669999999999732
199.065 0.21669999999999945
199.382 0.08339999999999748
199.701 0.14999999999999858
200.02 0.06669999999999732
200.338 0.1333999999999982
200.657 0.16669999999999874
200.976 0.08339999999999748
201.295 0.1833999999999989
201.613 0.06669999999999732
201.932 0.1999999999999993
202.251 0.21669999999999945
202.567 0.1333999999999982
202.886 0.11669999999999803
203.204 0.08339999999999748
203.523 0.14999999999999858
203.842 0.1999999999999993
204.16 0.1333999999999982
204.479 0.1999999999999993
204.797 0.08339999999999748
205.114 0.16669999999999874
205.433 0.1333999999999982
205.751 0.09999999999999787
206.07 0.26670000000000016
206.388 0.11669999999999803
206.707 0.16669999999999874
207.025 0.2333999999999996
207.342 0.16669999999999874
207.66 0.16669999999999874
207.979 0.1333999999999982
208.297 0.21669999999999945
208.615 0.21669999999999945
208.934 0.1833999999999989
209.25 0.21669999999999945
209.569 0.11669999999999803
209.887 0.14999999999999858
210.205 0.14999999999999858
210.524 0.1333999999999982
210.842 0.2333999999999996
211.158 0.14999999999999858
211.477 0.21669999999999945
211.795 0.1999999999999993
212.113 0.14999999999999858
212.432 0.25
212.75 0.16669999999999874
213.066 0.1333999999999982
213.385 0.1333999999999982
213.703 0.26670000000000016
214.021 0.1833999999999989
214.339 0.1333999999999982
214.656 0.25
214.974 0.1999999999999993
215.292 0.26670000000000016
215.61 0.1999999999999993
215.926 0.14999999999999858
216.245 0.25
216.563 0.1999999999999993
216.881 0.16669999999999874
217.199 0.21669999999999945
217.515 0.14999999999999858
217.833 0.1999999999999993
218.151 0.1833999999999989
218.469 0.2333999999999996
218.785 0.21669999999999945
219.104 0.1999999999999993
219.422 0.2834000000000003
219.74 0.1833999999999989
220.056 0.3333999999999975
220.374 0.16669999999999874
220.692 0.1833999999999989
221.01 0.29999999999999716
221.326 0.1333999999999982
221.644 0.2333999999999996
221.962 0.09999999999999787
222.28 0.2333999999999996
222.596 0.2333999999999996
222.914 0.14999999999999858
223.232 0.2834000000000003
223.547 0.2333999999999996
223.865 0.1999999999999993
224.183 0.1833999999999989
224.501 0.25
224.817 0.2333999999999996
225.135 0.1833999999999989
225.453 0.1999999999999993
225.768 0.1833999999999989
226.086 0.2333999999999996
226.404 0.1999999999999993
226.722 0.1833999999999989
227.038 0.26670000000000016
227.355 0.1999999999999993
227.673 0.14999999999999858
227.989 0.1999999999999993
228.307 0.04999999999999716
228.625 0.1833999999999989
228.94 0.366699999999998
229.258 0.1333999999999982
229.576 0.25
229.891 0.21669999999999945
230.209 0.1999999999999993
230.527 0.14999999999999858
230.842 0.16669999999999874
231.16 0.16669999999999874
231.478 0.09999999999999787
231.793 0.26670000000000016
232.111 0.1833999999999989
232.428 0.25
232.744 0.11669999999999803
233.062 0.1333999999999982
233.379 0.16669999999999874
233.695 0.2333999999999996
234.012 0.2333999999999996
234.33 0.2834000000000003
234.645 0.1333999999999982
234.963 0.1999999999999993
235.278 0.2333999999999996
235.596 0.11669999999999803
235.913 0.26670000000000016
236.229 0.1999999999999993
236.546 0.2333999999999996
236.864 0.1833999999999989
237.179 0.1333999999999982
237.497 0.25
237.812 0.2333999999999996
238.129 0.1833999999999989
238.447 0.21669999999999945
238.762 0.11669999999999803
239.08 0.29999999999999716
239.395 0.1833999999999989
239.712 0.16669999999999874
240.03 0.29999999999999716
240.345 0.11669999999999803
240.662 0.25
240.978 0.14999999999999858
241.295 0.21669999999999945
241.61 0.1833999999999989
241.927 0.09999999999999787
242.245 0.21669999999999945
242.56 0.25
242.877 0.25
243.192 0.21669999999999945
243.51 0.21669999999999945
243.825 0.1333999999999982
244.142 0.16669999999999874
244.459 0.1999999999999993
244.774 0.1999999999999993
245.092 0.21669999999999945
245.407 0.1833999999999989
245.724 0.29999999999999716
246.039 0.21669999999999945
246.356 0.1999999999999993
246.671 0.2333999999999996
246.988 0.1999999999999993
247.303 0.25
247.62 0.2333999999999996
247.938 0.29999999999999716
248.253 0.26670000000000016
248.57 0.25
248.885 0.14999999999999858
249.202 0.16669999999999874
249.517 0.1999999999999993
249.834 0.1333999999999982
250.149 0.21669999999999945
250.466 0.29999999999999716
250.781 0.26670000000000016
251.098 0.1833999999999989
251.412 0.3166999999999973
251.729 0.21669999999999945
252.044 0.25
252.361 0.3166999999999973
252.676 0.16669999999999874
252.993 0.3333999999999975
253.308 0.14999999999999858
253.625 0.2333999999999996
253.94 0.3333999999999975
254.256 0.1833999999999989
254.571 0.1833999999999989
254.888 0.21669999999999945
255.203 0.16669999999999874
255.518 0.1999999999999993
255.834 0.2834000000000003
256.149 0.14999999999999858
256.466 0.25
256.781 0.2333999999999996
257.097 0.1999999999999993
257.412 0.14999999999999858
257.729 0.2834000000000003
258.044 0.1999999999999993
258.36 0.16669999999999874
258.675 0.1833999999999989
258.99 0.2333999999999996
259.306 0.26670000000000016
259.621 0.1333999999999982
259.938 0.09999999999999787
260.252 0.2333999999999996
260.569 0.2333999999999996
260.883 0.09999999999999787
261.198 0.2333999999999996
261.515 0.1333999999999982
261.829 0.2333999999999996
262.146 0.14999999999999858
262.46 0.21669999999999945
262.775 0.16669999999999874
263.091 0.1333999999999982
263.406 0.2333999999999996
263.723 0.16669999999999874
264.037 0.21669999999999945
264.354 0.1999999999999993
264.668 0.16669999999999874
264.982 0.1999999999999993
265.299 0.09999999999999787
265.613 0.14999999999999858
265.928 0.16669999999999874
266.244 0.2333999999999996
266.559 0.1999999999999993
266.875 0.21669999999999945
267.189 0.26670000000000016
267.504 0.25
267.82 0.1333999999999982
268.134 0.11669999999999803
268.449 0.2333999999999996
268.765 0.21669999999999945
269.079 0.21669999999999945
269.394 0.16669999999999874
269.71 0.29999999999999716
270.024 0.1833999999999989
270.341 0.1333999999999982
270.655 0.25
270.969 0.366699999999998
271.286 0.25
271.6 0.14999999999999858
271.914 0.2834000000000003
272.23 0.2333999999999996
272.544 0.1833999999999989
272.859 0.16669999999999874
273.175 0.1333999999999982
273.489 0.2834000000000003
273.803 0.25
274.119 0.16669999999999874
274.433 0.16669999999999874
274.747 0.1333999999999982
275.062 0.2834000000000003
275.378 0.26670000000000016
275.692 0.08339999999999748
276.006 0.14999999999999858
276.322 0.21669999999999945
276.636 0.09999999999999787
276.95 0.2333999999999996
277.266 0.2333999999999996
277.58 0.09999999999999787
277.894 0.1833999999999989
278.208 0.2834000000000003
278.524 0.06669999999999732
278.838 0.1999999999999993
279.152 0.1333999999999982
279.468 0.3833999999999982
279.782 0.2834000000000003
280.096 0.21669999999999945
280.41 0.21669999999999945
280.726 0.21669999999999945
281.04 0.14999999999999858
281.354 0.25
281.668 0.1999999999999993
281.983 0.2333999999999996
282.297 0.2333999999999996
282.611 0.1833999999999989
282.925 0.3166999999999973
283.241 0.25
283.555 0.25
283.868 0.2333999999999996
284.182 0.09999999999999787
284.498 0.26670000000000016
284.812 0.3333999999999975
285.126 0.21669999999999945
285.439 0.1999999999999993
285.753 0.1333999999999982
286.069 0.2834000000000003
286.383 0.26670000000000016
286.696 0.26670000000000016
287.01 0.16669999999999874
287.326 0.21669999999999945
287.639 0.1833999999999989
287.953 0.1833999999999989
288.267 0.1833999999999989
288.58 0.04999999999999716
288.896 0.366699999999998
289.21 0.2834000000000003
289.523 0.21669999999999945
289.837 0.29999999999999716
290.15 0.14999999999999858
290.466 0.366699999999998
290.78 0.2333999999999996
291.093 0.26670000000000016
291.407 0.14999999999999858
291.72 0.2333999999999996
292.034 0.25
292.349 0.29999999999999716
292.663 0.2333999999999996
292.976 0.1833999999999989
293.29 0.25
293.603 0.34999999999999787
293.917 0.1833999999999989
294.232 0.1999999999999993
294.546 0.2333999999999996
294.859 0.16669999999999874
295.172 0.2333999999999996
295.486 0.16669999999999874
295.799 0.1333999999999982
296.113 0.29999999999999716
296.428 0.25
296.741 0.21669999999999945
297.055 0.1999999999999993
297.368 0.2333999999999996
297.681 0.1833999999999989
297.995 0.16669999999999874
298.308 0.1999999999999993
298.621 0.16669999999999874
298.937 0.21669999999999945
299.25 0.1833999999999989
299.563 0.2834000000000003
299.876 0.1999999999999993
300.19 0.1333999999999982
300.503 0.25
300.816 0.1999999999999993
301.129 0.2333999999999996
301.442 0.21669999999999945
301.756 0.16669999999999874
302.071 0.25
302.384 0.21669999999999945
302.697 0.1333999999999982
303.01 0.21669999999999945
303.323 0.2333999999999996
303.637 0.14999999999999858
303.95 0.1833999999999989
304.263 0.21669999999999945
304.576 0.25
304.889 0.2333999999999996
305.202 0.1333999999999982
305.515 0.2834000000000003
305.828 0.1833999999999989
306.141 0.2834000000000003
306.456 0.26670000000000016
306.769 0.1833999999999989
307.082 0.26670000000000016
307.395 0.14999999999999858
307.708 0.2333999999999996
308.021 0.1333999999999982
308.334 0.2834000000000003
308.647 0.26670000000000016
308.96 0.09999999999999787
309.273 0.2333999999999996
309.586 0.29999999999999716
309.899 0.11669999999999803
310.212 0.1999999999999993
310.525 0.11669999999999803
310.838 0.21669999999999945
311.15 0.1833999999999989
311.463 0.1833999999999989
311.776 0.14999999999999858
312.089 0.1833999999999989
312.402 0.2834000000000003
312.715 0.26670000000000016
313.027 0.2333999999999996
313.34 0.2834000000000003
313.653 0.09999999999999787
313.966 0.34999999999999787
314.278 0.14999999999999858
314.591 0.1833999999999989
314.904 0.2333999999999996
315.217 0.14999999999999858
315.529 0.1999999999999993
315.842 0.21669999999999945
316.155 0.26670000000000016
316.467 0.2333999999999996
316.78 0.25
317.093 0.3166999999999973
317.405 0.11669999999999803
317.718 0.1999999999999993
318.031 0.25
318.343 0.16669999999999874
318.656 0.25
318.969 0.09999999999999787
319.281 0.3166999999999973
319.592 0.21669999999999945
319.904 0.21669999999999945
320.217 0.3166999999999973
320.529 0.14999999999999858
320.842 0.2834000000000003
321.154 0.2333999999999996
321.467 0.21669999999999945
321.779 0.1833999999999989
322.092 0.1999999999999993
322.404 0.3166999999999973
322.717 0.3166999999999973
323.029 0.16669999999999874
323.342 0.3166999999999973
323.654 0.2333999999999996
323.965 0.1999999999999993
324.277 0.16669999999999874
324.589 0.14999999999999858
324.902 0.25
325.214 0.1999999999999993
325.527 0.2834000000000003
325.839 0.06669999999999732
326.151 0.25
326.464 0.2333999999999996
326.776 0.14999999999999858
327.086 0.16669999999999874
327.399 0.2834000000000003
327.711 0.3166999999999973
328.023 0.3166999999999973
328.335 0.21669999999999945
328.648 0.4333999999999989
328.96 0.16669999999999874
329.27 0.2834000000000003
329.582 0.3833999999999982
329.895 0.34999999999999787
330.207 0.41669999999999874
330.519 0.2834000000000003
330.831 0.29999999999999716
331.143 0.4499999999999993
331.454 0.2834000000000003
331.766 0.29999999999999716
332.078 0.3333999999999975
332.39 0.3833999999999982
332.702 0.34999999999999787
333.014 0.1833999999999989
333.326 0.3166999999999973
333.636 0.3166999999999973
333.948 0.3333999999999975
334.261 0.2834000000000003
334.573 0.21669999999999945
334.885 0.26670000000000016
335.195 0.1999999999999993
335.507 0.29999999999999716
335.819 0.14999999999999858
336.131 0.2834000000000003
336.443 0.26670000000000016
336.753 0.2333999999999996
337.065 0.3166999999999973
337.377 0.21669999999999945
337.689 0.3333999999999975
338.001 0.2834000000000003
338.31 0.1833999999999989
338.622 0.2333999999999996
338.934 0.2333999999999996
339.246 0.2834000000000003
339.558 0.2834000000000003
339.868 0.2333999999999996
340.18 0.29999999999999716
340.492 0.25
340.804 0.25
341.113 0.25
341.425 0.1999999999999993
341.737 0.1999999999999993
342.049 0.29999999999999716
342.361 0.2333999999999996
342.67 0.3166999999999973
342.982 0.1999999999999993
343.294 0.3333999999999975
343.606 0.1833999999999989
343.915 0.1999999999999993
344.227 0.26670000000000016
344.539 0.26670000000000016
344.849 0.3833999999999982
345.16 0.2834000000000003
345.472 0.1833999999999989
345.784 0.25
346.093 0.26670000000000016
346.405 0.1833999999999989
346.717 0.21669999999999945
347.028 0.1999999999999993
347.338 0.3333999999999975
347.649 0.2333999999999996
347.961 0.25
348.271 0.26670000000000016
348.582 0.29999999999999716
348.894 0.26670000000000016
349.205 0.3166999999999973
349.515 0.26670000000000016
349.826 0.26670000000000016
350.138 0.1999999999999993
350.447 0.1999999999999993
350.759 0.21669999999999945
351.07 0.21669999999999945
351.38 0.2333999999999996
351.691 0.25
352.003 0.2333999999999996
352.312 0.2834000000000003
352.624 0.25
352.935 0.34999999999999787
353.245 0.2333999999999996
353.556 0.366699999999998
353.867 0.29999999999999716
354.177 0.2834000000000003
354.488 0.26670000000000016
354.799 0.3333999999999975
355.109 0.29999999999999716
355.42 0.25
355.732 0.3833999999999982
356.041 0.2333999999999996
356.352 0.21669999999999945
356.663 0.1333999999999982
356.973 0.3833999999999982
357.284 0.1833999999999989
357.593 0.26670000000000016
357.905 0.2834000000000003
358.216 0.16669999999999874
358.525 0.2834000000000003
358.836 0.1833999999999989
359.147 0.25
359.457 0.34999999999999787
359.768 0.3166999999999973
360.077 0.29999999999999716
360.388 0.29999999999999716
360.699 0.2333999999999996
361.008 0.2834000000000003
361.32 0.3333999999999975
361.629 0.25
361.94 0.1833999999999989
362.251 0.3333999999999975
362.56 0.1833999999999989
362.871 0.26670000000000016
363.18 0.3166999999999973
363.491 0.16669999999999874
363.8 0.25
364.111 0.26670000000000016
364.422 0.2834000000000003
364.731 0.25
365.042 0.1999999999999993
365.351 0.21669999999999945
365.662 0.25
365.971 0.3333999999999975
366.282 0.3166999999999973
366.593 0.25
366.902 0.25
367.213 0.3166999999999973
367.522 0.1333999999999982
367.833 0.1999999999999993
368.142 0.26670000000000016
368.453 0.2834000000000003
368.762 0.2333999999999996
369.073 0.16669999999999874
369.381 0.41669999999999874
369.692 0.16669999999999874
370.001 0.1999999999999993
370.312 0.25
370.623 0.1333999999999982
370.932 0.1999999999999993
371.242 0.3333999999999975
371.551 0.3166999999999973
371.862 0.1999999999999993
372.171 0.25
372.482 0.25
372.79 0.29999999999999716
373.101 0.21669999999999945
373.41 0.25
373.721 0.25
374.029 0.3166999999999973
374.34 0.3333999999999975
374.649 0.26670000000000016
374.959 0.14999999999999858
375.268 0.21669999999999945
375.577 0.2834000000000003
375.887 0.1999999999999993
376.196 0.1833999999999989
376.506 0.2834000000000003
376.815 0.26670000000000016
377.126 0.3166999999999973
377.434 0.2333999999999996
377.745 0.1833999999999989
378.053 0.1833999999999989
378.364 0.26670000000000016
378.672 0.29999999999999716
378.983 0.25
379.292 0.1999999999999993
379.6 0.3999999999999986
379.911 0.2333999999999996
380.219 0.21669999999999945
380.53 0.2834000000000003
380.838 0.3166999999999973
381.148 0.4333999999999989
381.457 0.26670000000000016
381.767 0.3833999999999982
382.076 0.2333999999999996
382.384 0.21669999999999945
382.695 0.34999999999999787
383.003 0.2834000000000003
383.313 0.34999999999999787
383.622 0.16669999999999874
383.93 0.46669999999999945
384.24 0.1999999999999993
384.549 0.2333999999999996
384.859 0.2834000000000003
385.167 0.14999999999999858
385.476 0.1999999999999993
385.786 0.2834000000000003
386.094 0.34999999999999787
386.405 0.2834000000000003
386.713 0.1833999999999989
387.021 0.25
387.331 0.26670000000000016
387.64 0.3999999999999986
387.948 0.34999999999999787
388.258 0.21669999999999945
388.566 0.3166999999999973
388.877 0.366699999999998
389.185 0.3833999999999982
389.493 0.1833999999999989
389.803 0.1999999999999993
390.111 0.3166999999999973
390.419 0.3333999999999975
390.729 0.29999999999999716
391.038 0.2834000000000003
391.346 0.3999999999999986
391.656 0.2333999999999996
391.964 0.26670000000000016
392.272 0.3333999999999975
392.582 0.41669999999999874
392.89 0.2333999999999996
393.198 0.34999999999999787
393.508 0.2333999999999996
393.816 0.2834000000000003
394.124 0.3833999999999982
394.434 0.26670000000000016
394.742 0.2333999999999996
395.05 0.3166999999999973
395.36 0.3333999999999975
395.668 0.26670000000000016
395.976 0.2834000000000003
396.286 0.366699999999998
396.594 0.2333999999999996
396.902 0.3999999999999986
397.21 0.2333999999999996
397.52 0.26670000000000016
397.828 0.26670000000000016
398.135 0.16669999999999874
398.445 0.34999999999999787
398.753 0.25
399.061 0.2333999999999996
399.369 0.2834000000000003
399.679 0.26670000000000016
399.987 0.2834000000000003
400.294 0.34999999999999787
400.604 0.3166999999999973
400.912 0.3166999999999973
401.22 0.25
401.527 0.3333999999999975
401.837 0.34999999999999787
402.145 0.21669999999999945
402.453 0.4833999999999996
402.76 0.2834000000000003
403.07 0.26670000000000016
403.378 0.3333999999999975
403.686 0.41669999999999874
403.993 0.29999999999999716
404.303 0.34999999999999787
404.611 0.2834000000000003
404.918 0.25
405.226 0.3999999999999986
405.533 0.3166999999999973
405.843 0.3833999999999982
406.151 0.4333999999999989
406.458 0.29999999999999716
406.766 0.41669999999999874
407.076 0.3166999999999973
407.383 0.3333999999999975
407.691 0.3833999999999982
407.998 0.4499999999999993
408.306 0.3166999999999973
408.615 0.34999999999999787
408.923 0.2834000000000003
409.23 0.3833999999999982
409.538 0.3166999999999973
409.845 0.46669999999999945
410.153 0.4333999999999989
410.462 0.41669999999999874
410.77 0.34999999999999787
411.077 0.3999999999999986
411.384 0.5
411.692 0.366699999999998
412.001 0.34999999999999787
412.309 0.46669999999999945
412.616 0.4333999999999989
412.923 0.4333999999999989
413.231 0.3999999999999986
413.538 0.3166999999999973
413.845 0.4833999999999996
414.155 0.4333999999999989
414.462 0.5167000000000002
414.769 0.46669999999999945
415.077 0.3999999999999986
415.384 0.5499999999999972
415.691 0.3333999999999975
415.999 0.5
416.308 0.5666999999999973
416.615 0.5666999999999973
416.922 0.5334000000000003
417.23 0.4333999999999989
417.537 0.5666999999999973
417.844 0.616699999999998
418.151 0.5
418.458 0.75
418.768 0.75
419.075 0.7166999999999994
419.382 0.7667000000000002
419.689 0.8833999999999982
419.996 0.7667000000000002
420.303 0.9333999999999989
420.61 0.8499999999999979
420.918 1.1499999999999986
421.225 1.1499999999999986
421.532 1.0
421.841 1.0499999999999972
422.148 1.25
422.455 1.1999999999999993
422.762 1.1499999999999986
423.069 1.3499999999999979
423.376 1.1666999999999987
423.683 1.3833999999999982
423.99 1.3166999999999973
424.297 1.4166999999999987
424.604 1.5167000000000002
424.911 1.366699999999998
425.218 1.5666999999999973
425.525 1.366699999999998
425.832 1.6499999999999986
426.139 1.3833999999999982
426.446 1.4666999999999994
426.753 1.433399999999999
427.061 1.0833999999999975
427.368 1.4666999999999994
427.675 1.4166999999999987
427.982 1.0999999999999979
428.289 1.1333999999999982
428.596 1.2166999999999994
428.903 1.2333999999999996
429.209 1.2667000000000002
429.516 1.0833999999999975
429.823 1.183399999999999
430.13 0.8833999999999982
430.437 0.9666999999999994
430.743 0.866699999999998
431.05 0.7999999999999972
431.357 0.9499999999999993
431.664 0.6999999999999993
431.97 0.7834000000000003
432.277 0.75
432.584 0.7166999999999994
432.891 0.75
433.197 0.616699999999998
433.504 0.5499999999999972
433.811 0.5666999999999973
434.117 0.5833999999999975
434.424 0.5666999999999973
434.731 0.5334000000000003
435.037 0.46669999999999945
435.344 0.5334000000000003
435.65 0.41669999999999874
435.957 0.4499999999999993
436.262 0.6333999999999982
436.568 0.5833999999999975
436.875 0.4499999999999993
437.181 0.41669999999999874
437.488 0.5999999999999979
437.794 0.3999999999999986
438.101 0.3999999999999986
438.407 0.366699999999998
438.714 0.46669999999999945
439.02 0.34999999999999787
439.327 0.3833999999999982
439.633 0.4499999999999993
439.94 0.2834000000000003
440.246 0.4333999999999989
440.553 0.3166999999999973
440.859 0.4499999999999993
441.163 0.3833999999999982
441.47 0.3333999999999975
441.776 0.3333999999999975
442.083 0.3166999999999973
442.389 0.3333999999999975
442.695 0.34999999999999787
443.002 0.3333999999999975
443.308 0.25
443.614 0.366699999999998
443.921 0.3999999999999986
444.225 0.366699999999998
444.531 0.3833999999999982
444.838 0.3999999999999986
445.144 0.3333999999999975
445.45 0.3166999999999973
445.757 0.3166999999999973
446.063 0.29999999999999716
446.369 0.3833999999999982
446.675 0.34999999999999787
446.979 0.366699999999998
447.286 0.3999999999999986
447.592 0.4333999999999989
447.898 0.3999999999999986
448.204 0.3333999999999975
448.51 0.3833999999999982
448.817 0.2834000000000003
449.121 0.3999999999999986
449.427 0.34999999999999787
449.733 0.3999999999999986
450.039 0.366699999999998
450.345 0.5334000000000003
450.651 0.4499999999999993
450.955 0.34999999999999787
451.261 0.34999999999999787
451.568 0.41669999999999874
451.874 0.3833999999999982
452.18 0.29999999999999716
452.486 0.4333999999999989
452.79 0.3999999999999986
453.096 0.3833999999999982
453.402 0.4333999999999989
453.708 0.366699999999998
454.014 0.3833999999999982
454.318 0.34999999999999787
454.624 0.366699999999998
454.93 0.29999999999999716
455.236 0.26670000000000016
455.541 0.34999999999999787
455.845 0.3166999999999973
456.151 0.2834000000000003
456.457 0.41669999999999874
456.763 0.26670000000000016
457.067 0.4499999999999993
457.373 0.2834000000000003
457.679 0.26670000000000016
457.985 0.41669999999999874
458.29 0.25
458.594 0.3166999999999973
458.9 0.26670000000000016
459.206 0.4833999999999996
459.512 0.29999999999999716
459.815 0.2333999999999996
460.121 0.2834000000000003
460.427 0.3999999999999986
460.733 0.26670000000000016
461.036 0.41669999999999874
461.342 0.29999999999999716
461.648 0.366699999999998
461.954 0.2834000000000003
462.257 0.2834000000000003
462.563 0.3166999999999973
462.869 0.29999999999999716
463.172 0.366699999999998
463.478 0.3166999999999973
463.784 0.29999999999999716
464.089 0.34999999999999787
464.393 0.4499999999999993
464.699 0.3999999999999986
465.004 0.3166999999999973
465.308 0.3833999999999982
465.613 0.25
465.919 0.29999999999999716
466.225 0.2834000000000003
466.528 0.2834000000000003
466.834 0.2333999999999996
467.139 0.3833999999999982
467.443 0.3333999999999975
467.748 0.3833999999999982
468.054 0.26670000000000016
468.357 0.29999999999999716
468.663 0.25
468.968 0.25
469.272 0.3999999999999986
469.577 0.3999999999999986
469.883 0.3166999999999973
470.186 0.3333999999999975
470.492 0.366699999999998
470.797 0.1833999999999989
471.1 0.25
471.406 0.366699999999998
471.711 0.29999999999999716
472.014 0.2333999999999996
472.32 0.366699999999998
472.625 0.2834000000000003
472.929 0.34999999999999787
473.234 0.4499999999999993
473.539 0.46669999999999945
473.843 0.41669999999999874
474.148 0.3833999999999982
474.451 0.5666999999999973
474.756 0.21669999999999945
475.062 0.4499999999999993
475.365 0.3333999999999975
475.67 0.34999999999999787
475.973 0.34999999999999787
476.279 0.26670000000000016
476.584 0.5167000000000002
476.887 0.46669999999999945
477.192 0.4499999999999993
477.498 0.6999999999999993
477.801 0.7333999999999996
478.106 0.6333999999999982
478.409 0.6833999999999989
478.714 0.5833999999999975
479.017 0.7834000000000003
479.322 0.7667000000000002
479.628 0.7166999999999994
479.931 0.7333999999999996
480.236 0.6333999999999982
480.539 0.6666999999999987
480.844 0.6999999999999993
481.147 0.7999999999999972
481.452 0.9833999999999996
481.757 0.75
482.06 0.8333999999999975
482.365 0.75
482.668 0.8166999999999973
482.973 0.6999999999999993
483.276 0.8499999999999979
483.581 0.7999999999999972
483.884 0.5167000000000002
484.189 0.7667000000000002
484.494 0.5999999999999979
484.797 0.5
485.102 0.5666999999999973
485.405 0.3999999999999986
485.71 0.4499999999999993
486.013 0.4333999999999989
486.318 0.29999999999999716
486.621 0.5167000000000002
486.925 0.34999999999999787
487.228 0.5167000000000002
487.533 0.3833999999999982
487.836 0.3333999999999975
488.141 0.29999999999999716
488.444 0.3166999999999973
488.748 0.3833999999999982
489.051 0.3333999999999975
489.356 0.34999999999999787
489.659 0.366699999999998
489.964 0.26670000000000016
490.266 0.366699999999998
490.571 0.3166999999999973
490.874 0.3833999999999982
491.179 0.25
491.481 0.366699999999998
491.786 0.3166999999999973
492.089 0.3166999999999973
492.393 0.2834000000000003
492.696 0.3833999999999982
493.001 0.34999999999999787
493.303 0.3333999999999975
493.606 0.3166999999999973
493.911 0.29999999999999716
494.213 0.29999999999999716
494.518 0.3166999999999973
494.821 0.34999999999999787
495.125 0.3166999999999973
495.428 0.34999999999999787
495.732 0.3833999999999982
496.035 0.25
496.337 0.25
496.642 0.3166999999999973
496.945 0.26670000000000016
497.249 0.1999999999999993
497.552 0.2834000000000003
497.856 0.34999999999999787
498.159 0.3333999999999975
498.461 0.3333999999999975
498.766 0.3833999999999982
499.068 0.2834000000000003
499.372 0.25
499.675 0.21669999999999945
499.977 0.21669999999999945
500.282 0.1999999999999993
500.584 0.2834000000000003
500.889 0.29999999999999716
501.191 0.26670000000000016
501.493 0.366699999999998
501.798 0.34999999999999787
502.1 0.3166999999999973
502.402 0.29999999999999716
502.707 0.2834000000000003
503.009 0.3166999999999973
503.314 0.3333999999999975
503.616 0.25
503.918 0.41669999999999874
504.222 0.1833999999999989
504.525 0.26670000000000016
504.827 0.3166999999999973
505.131 0.1833999999999989
505.433 0.3833999999999982
505.736 0.25
506.04 0.3333999999999975
506.342 0.25
506.646 0.16669999999999874
506.949 0.26670000000000016
507.251 0.25
507.555 0.3833999999999982
507.857 0.1999999999999993
508.159 0.2333999999999996
508.461 0.2834000000000003
508.766 0.25
509.068 0.4833999999999996
509.37 0.2333999999999996
509.674 0.2834000000000003
509.976 0.26670000000000016
510.278 0.34999999999999787
510.582 0.41669999999999874
510.884 0.29999999999999716
511.186 0.2834000000000003
511.49 0.3833999999999982
511.792 0.3333999999999975
512.094 0.29999999999999716
512.396 0.2333999999999996
512.701 0.366699999999998
513.003 0.366699999999998
513.305 0.3333999999999975
513.609 0.2834000000000003
513.91 0.29999999999999716
514.212 0.29999999999999716
514.514 0.21669999999999945
514.818 0.21669999999999945
515.12 0.3166999999999973
515.422 0.16669999999999874
515.724 0.2834000000000003
516.028 0.2563941719778704
516.33 0.2543573384793518
516.632 0.2536043526469598
516.934 0.2519530392439542
517.237 0.2525631456980868
517.539 0.2528395045293408
517.841 0.2531020046946608
518.143 0.26670000000000016
518.447 0.25
518.749 0.2333999999999996
519.05 0.26670000000000016
519.352 0.3999999999999986
519.656 0.366699999999998
519.958 0.3333999999999975
520.26 0.33353612287956125
520.561 0.337533007536301
520.863 0.33516232776172217
521.167 0.3352413313884064
521.468 0.33486376310160537
521.77 0.3367702874199914
522.072 0.336575259796863
522.376 0.3166999999999973
522.677 0.26670000000000016
522.979 0.3333999999999975
523.281 0.2333999999999996
523.582 0.26670000000000016
523.884 0.2333999999999996
524.187 0.3166999999999973
524.489 0.2834000000000003
524.791 0.3333999999999975
525.092 0.41669999999999874
525.394 0.2834000000000003
525.697 0.2333999999999996
525.999 0.46669999999999945
526.301 0.3166999999999973
526.602 0.21669999999999945
526.904 0.3166999999999973
527.205 0.1999999999999993
527.507 0.366699999999998
527.81 0.26670000000000016
528.112 0.3166999999999973
528.413 0.1999999999999993
528.715 0.3166999999999973
529.016 0.3333999999999975
529.318 0.3166999999999973
529.619 0.29999999999999716
529.922 0.29999999999999716
530.224 0.4499999999999993
530.525 0.4499999999999993
530.827 0.3833999999999982
531.128 0.3833999999999982
531.429 0.29999999999999716
531.731 0.3333999999999975
532.032 0.2834000000000003
532.336 0.3833999999999982
532.637 0.29999999999999716
532.938 0.25
533.24 0.26670000000000016
533.541 0.29999999999999716
533.842 0.34999999999999787
534.143 0.25
534.445 0.2834000000000003
534.746 0.34999999999999787
535.047 0.29999999999999716
535.351 0.3333999999999975
535.652 0.29999999999999716
535.953 0.366699999999998
536.254 0.25
536.555 0.34999999999999787
536.857 0.3833999999999982
537.158 0.21669999999999945
537.459 0.3166999999999973
537.76 0.29999999999999716
538.061 0.3999999999999986
538.362 0.2834000000000003
538.664 0.2834000000000003
538.965 0.29999999999999716
539.266 0.3333999999999975
539.567 0.4333999999999989
539.868 0.3999999999999986
540.169 0.3833999999999982
540.472 0.26670000000000016
540.773 0.34999999999999787
541.074 0.2834000000000003
541.375 0.41669999999999874
541.677 0.41669999999999874
541.978 0.3999999999999986
542.279 0.366699999999998
542.58 0.2834000000000003
542.881 0.2834000000000003
543.182 0.25
543.483 0.3333999999999975
543.784 0.2834000000000003
544.085 0.26670000000000016
544.385 0.3833999999999982
544.686 0.26670000000000016
544.987 0.34999999999999787
545.288 0.366699999999998
545.589 0.29999999999999716
545.89 0.3166999999999973
546.191 0.3999999999999986
546.492 0.41669999999999874
546.793 0.3166999999999973
547.094 0.3999999999999986
547.394 0.4333999999999989
547.695 0.366699999999998
547.996 0.3833999999999982
548.297 0.29999999999999716
548.596 0.366699999999998
548.897 0.46669999999999945
549.197 0.46669999999999945
549.498 0.3833999999999982
549.799 0.3833999999999982
550.1 0.4333999999999989
550.4 0.366699999999998
550.701 0.4499999999999993
551.002 0.34999999999999787
551.303 0.3833999999999982
551.603 0.5499999999999972
551.904 0.4499999999999993
552.205 0.4333999999999989
552.505 0.46669999999999945
552.806 0.46669999999999945
553.107 0.5167000000000002
553.407 0.46669999999999945
553.706 0.3999999999999986
554.007 0.5334000000000003
554.307 0.6833999999999989
554.608 0.5666999999999973
554.909 0.5666999999999973
555.209 0.4499999999999993
555.51 0.7333999999999996
555.81 0.4333999999999989
556.111 0.5666999999999973
556.411 0.3999999999999986
556.71 0.46669999999999945
557.01 0.46669999999999945
557.311 0.4833999999999996
557.612 0.5167000000000002
557.912 0.46669999999999945
558.213 0.5334000000000003
558.513 0.4833999999999996
558.813 0.5334000000000003
559.112 0.5666999999999973
559.412 0.3999999999999986
559.713 0.4833999999999996
560.013 0.4333999999999989
560.314 0.5
560.614 0.41669999999999874
560.914 0.3166999999999973
561.213 0.46669999999999945
561.513 0.4833999999999996
561.814 0.29999999999999716
562.114 0.4333999999999989
562.414 0.3833999999999982
562.715 0.2834000000000003
563.015 0.34999999999999787
563.313 0.2834000000000003
563.614 0.4499999999999993
563.914 0.29999999999999716
564.214 0.366699999999998
564.515 0.2834000000000003
564.813 0.3166999999999973
565.113 0.2834000000000003
565.413 0.29999999999999716
565.714 0.4333999999999989
566.014 0.41669999999999874
566.312 0.366699999999998
566.612 0.3833999999999982
566.912 0.34999999999999787
567.213 0.366699999999998
567.513 0.3333999999999975
567.811 0.3166999999999973
568.111 0.3333999999999975
568.411 0.366699999999998
568.712 0.3333999999999975
569.012 0.29999999999999716
569.31 0.3333999999999975
569.61 0.4499999999999993
569.91 0.29999999999999716
570.21 0.366699999999998
570.508 0.3333999999999975
570.808 0.41669999999999874
571.108 0.3333999999999975
571.408 0.29999999999999716
571.706 0.3333999999999975
572.006 0.3333999999999975
572.306 0.3833999999999982
572.607 0.41669999999999874
572.904 0.26670000000000016
573.204 0.34999999999999787
573.505 0.3333999999999975
573.805 0.3333999999999975
574.102 0.3333999999999975
574.402 0.3333999999999975
574.702 0.3833999999999982
575.002 0.29999999999999716
575.3 0.21669999999999945
575.6 0.4499999999999993
575.9 0.3333999999999975
576.198 0.25
576.498 0.26670000000000016
576.798 0.2834000000000003
577.098 0.41669999999999874
577.395 0.26670000000000016
577.695 0.2834000000000003
577.995 0.3166999999999973
578.293 0.2333999999999996
578.593 0.3166999999999973
578.893 0.3166999999999973
579.19 0.34999999999999787
579.49 0.3333999999999975
579.79 0.3333999999999975
580.088 0.2834000000000003
580.387 0.1999999999999993
580.687 0.3166999999999973
580.985 0.34999999999999787
581.285 0.3166999999999973
581.584 0.29999999999999716
581.882 0.3333999999999975
582.182 0.3999999999999986
582.482 0.29999999999999716
582.779 0.3333999999999975
583.079 0.41669999999999874
583.378 0.2834000000000003
583.676 0.25
583.976 0.25
584.275 0.3166999999999973
584.573 0.366699999999998
584.873 0.3333999999999975
585.17 0.366699999999998
585.47 0.2834000000000003
585.769 0.3833999999999982
586.067 0.25
586.367 0.3333999999999975
586.666 0.3333999999999975
586.964 0.21669999999999945
587.263 0.41669999999999874
587.561 0.3333999999999975
587.86 0.366699999999998
588.16 0.41669999999999874
588.457 0.29999999999999716
588.757 0.3999999999999986
589.054 0.3166999999999973
589.354 0.3166999999999973
589.653 0.2834000000000003
589.951 0.1833999999999989
590.25 0.34999999999999787
590.547 0.2834000000000003
590.847 0.3166999999999973
591.144 0.3833999999999982
591.444 0.29999999999999716
591.743 0.3166999999999973
592.04 0.2333999999999996
592.34 0.29999999999999716
592.637 0.25
592.936 0.26670000000000016
593.234 0.366699999999998
593.533 0.29999999999999716
593.832 0.25
594.13 0.3833999999999982
594.429 0.2834000000000003
594.726 0.26670000000000016
595.026 0.3333999999999975
595.323 0.2333999999999996
595.622 0.3999999999999986
595.919 0.25
596.219 0.3999999999999986
596.516 0.1999999999999993
596.815 0.2834000000000003
597.112 0.3333999999999975
597.411 0.25
597.709 0.3833999999999982
598.008 0.2333999999999996
598.305 0.3833999999999982
598.604 0.34999999999999787
598.901 0.3833999999999982
599.2 0.3833999999999982
599.497 0.366699999999998
599.797 0.34999999999999787
600.094 0.34999999999999787
600.393 0.3166999999999973
600.69 0.41669999999999874
600.989 0.41669999999999874
601.286 0.366699999999998
601.585 0.3166999999999973
601.882 0.25
602.181 0.29999999999999716
602.478 0.2834000000000003
602.777 0.366699999999998
603.074 0.21669999999999945
603.373 0.3833999999999982
603.67 0.3166999999999973
603.969 0.26670000000000016
604.266 0.26670000000000016
604.563 0.14999999999999858
604.862 0.3166999999999973
605.159 0.4333999999999989
605.458 0.2834000000000003
605.755 0.25
606.054 0.3999999999999986
606.351 0.3333999999999975
606.65 0.366699999999998
606.946 0.3166999999999973
607.243 0.3833999999999982
607.542 0.41669999999999874
607.839 0.46669999999999945
608.138 0.3833999999999982
608.435 0.5
608.732 0.4499999999999993
609.03 0.41669999999999874
609.327 0.2834000000000003
609.626 0.3333999999999975
609.923 0.5499999999999972
610.22 0.4333999999999989
610.518 0.4833999999999996
610.815 0.366699999999998
611.114 0.46669999999999945
611.411 0.4333999999999989
611.707 0.4833999999999996
612.006 0.3333999999999975
612.303 0.5167000000000002
612.601 0.4833999999999996
612.898 0.34999999999999787
613.195 0.4833999999999996
613.493 0.3166999999999973
613.79 0.3833999999999982
614.087 0.5
614.385 0.4499999999999993
614.682 0.5666999999999973
614.979 0.4499999999999993
615.277 0.3999999999999986
615.574 0.4833999999999996
615.87 0.3999999999999986
616.169 0.41669999999999874
616.466 0.5167000000000002
616.764 0.46669999999999945
617.061 0.46669999999999945
617.357 0.3166999999999973
617.656 0.29999999999999716
617.952 0.3166999999999973
618.249 0.3999999999999986
618.545 0.3999999999999986
618.844 0.29999999999999716
619.14 0.366699999999998
619.437 0.29999999999999716
619.735 0.366699999999998
620.032 0.4333999999999989
620.328 0.366699999999998
620.626 0.34999999999999787
620.923 0.366699999999998
621.219 0.41669999999999874
621.518 0.34999999999999787
621.814 0.3333999999999975
622.11 0.26670000000000016
622.407 0.3166999999999973
622.705 0.3166999999999973
623.002 0.4499999999999993
623.298 0.2834000000000003
623.594 0.2834000000000003
623.893 0.2333999999999996
624.189 0.25
624.485 0.26670000000000016
624.784 0.4499999999999993
625.08 0.3999999999999986
625.376 0.3833999999999982
625.672 0.366699999999998
625.971 0.366699999999998
626.267 0.29999999999999716
626.563 0.3333999999999975
626.859 0.25
627.158 0.26670000000000016
627.454 0.3166999999999973
627.75 0.3333999999999975
628.046 0.26670000000000016
628.342 0.25
628.641 0.26670000000000016
628.937 0.29999999999999716
629.233 0.29999999999999716
629.529 0.3166999999999973
629.827 0.3166999999999973
630.123 0.3833999999999982
630.419 0.3333999999999975
630.715 0.26670000000000016
631.011 0.2834000000000003
631.31 0.26670000000000016
631.606 0.2834000000000003
631.902 0.3166999999999973
632.198 0.34999999999999787
632.494 0.366699999999998
632.792 0.34999999999999787
633.088 0.4499999999999993
633.384 0.1999999999999993
633.68 0.29999999999999716
633.976 0.21669999999999945
634.272 0.3833999999999982
634.57 0.2834000000000003
634.866 0.2834000000000003
635.162 0.41669999999999874
635.458 0.2834000000000003
635.754 0.25
636.05 0.26670000000000016
636.347 0.2333999999999996
636.643 0.3833999999999982
636.939 0.3333999999999975
637.235 0.29999999999999716
637.531 0.366699999999998
637.827 0.26670000000000016
638.123 0.3999999999999986
638.421 0.2333999999999996
638.716 0.29999999999999716
639.012 0.3166999999999973
639.308 0.25
639.604 0.3166999999999973
639.9 0.29999999999999716
640.195 0.3833999999999982
640.491 0.41669999999999874
640.789 0.366699999999998
641.085 0.29999999999999716
641.381 0.3166999999999973
641.676 0.2333999999999996
641.972 0.29999999999999716
642.268 0.34999999999999787
642.563 0.25
642.859 0.1999999999999993
643.155 0.29999999999999716
643.451 0.34999999999999787
643.746 0.26670000000000016
644.044 0.366699999999998
644.34 0.3333999999999975
644.635 0.26670000000000016
644.931 0.2834000000000003
645.227 0.366699999999998
645.522 0.3166999999999973
645.818 0.3333999999999975
646.113 0.3166999999999973
646.409 0.3833999999999982
646.704 0.3333999999999975
647.0 0.41669999999999874
647.296 0.4499999999999993
647.591 0.41669999999999874
647.887 0.34999999999999787
648.182 0.34999999999999787
648.478 0.3333999999999975
648.773 0.2834000000000003
649.069 0.366699999999998
649.366 0.41669999999999874
649.662 0.3166999999999973
649.957 0.34999999999999787
650.253 0.21669999999999945
650.548 0.366699999999998
650.844 0.3333999999999975
651.139 0.34999999999999787
651.434 0.29999999999999716
651.73 0.21669999999999945
652.025 0.4333999999999989
652.321 0.3333999999999975
652.616 0.4333999999999989
652.911 0.41669999999999874
653.207 0.2834000000000003
653.502 0.5833999999999975
653.797 0.4499999999999993
654.093 0.3166999999999973
654.388 0.4499999999999993
654.683 0.5666999999999973
654.979 0.5
655.274 0.4499999999999993
655.567 0.46669999999999945
655.863 0.5499999999999972
656.158 0.3333999999999975
656.453 0.4833999999999996
656.748 0.5167000000000002
657.044 0.4499999999999993
657.339 0.5499999999999972
657.634 0.4333999999999989
657.929 0.5499999999999972
658.224 0.41669999999999874
658.52 0.5999999999999979
658.815 0.8499999999999979
659.11 0.5666999999999973
659.405 0.5499999999999972
659.7 0.4833999999999996
659.995 0.5833999999999975
660.291 0.5833999999999975
660.586 0.5833999999999975
660.879 0.6499999999999986
661.174 0.5499999999999972
661.469 0.5167000000000002
661.764 0.5167000000000002
662.059 0.6333999999999982
662.354 0.5167000000000002
662.649 0.5334000000000003
662.944 0.75
663.239 0.5999999999999979
663.534 0.6666999999999987
663.83 0.5666999999999973
664.122 0.4833999999999996
664.417 0.5
664.713 0.6333999999999982
665.008 0.4499999999999993
665.302 0.5334000000000003
665.597 0.4499999999999993
665.892 0.5334000000000003
666.187 0.4499999999999993
666.48 0.366699999999998
666.775 0.5499999999999972
667.07 0.4333999999999989
667.365 0.34999999999999787
667.66 0.34999999999999787
667.955 0.5167000000000002
668.25 0.5
668.542 0.366699999999998
668.837 0.41669999999999874
669.132 0.3166999999999973
669.427 0.3166999999999973
669.722 0.46669999999999945
670.017 0.3833999999999982
670.31 0.5
670.604 0.46669999999999945
670.899 0.4499999999999993
671.194 0.41669999999999874
671.489 0.4499999999999993
671.783 0.3333999999999975
672.076 0.34999999999999787
672.371 0.2834000000000003
672.666 0.3333999999999975
672.96 0.46669999999999945
673.255 0.41669999999999874
673.548 0.3833999999999982
673.842 0.2834000000000003
674.137 0.3333999999999975
674.432 0.4499999999999993
674.727 0.366699999999998
675.019 0.26670000000000016
675.314 0.2333999999999996
675.608 0.2333999999999996
675.903 0.4499999999999993
676.196 0.29999999999999716
676.49 0.3333999999999975
676.785 0.34999999999999787
677.079 0.3999999999999986
677.374 0.29999999999999716
677.667 0.4833999999999996
677.961 0.3333999999999975
678.256 0.26670000000000016
678.55 0.366699999999998
678.843 0.3999999999999986
679.137 0.3833999999999982
679.432 0.3999999999999986
679.726 0.3999999999999986
680.019 0.21669999999999945
680.313 0.3999999999999986
680.608 0.34999999999999787
680.902 0.41669999999999874
681.195 0.26670000000000016
681.489 0.3833999999999982
681.784 0.4499999999999993
682.076 0.34999999999999787
682.37 0.2333999999999996
682.665 0.4333999999999989
682.959 0.2834000000000003
683.252 0.41669999999999874
683.546 0.34999999999999787
683.84 0.34999999999999787
684.133 0.3999999999999986
684.427 0.3166999999999973
684.721 0.4333999999999989
685.014 0.3166999999999973
685.308 0.3999999999999986
685.602 0.3166999999999973
685.895 0.3166999999999973
686.189 0.4499999999999993
686.483 0.3166999999999973
686.778 0.2834000000000003
687.07 0.3999999999999986
687.364 0.4499999999999993
687.658 0.3166999999999973
687.951 0.25
688.245 0.25
688.537 0.5
688.831 0.3166999999999973
689.125 0.366699999999998
689.418 0.2333999999999996
689.712 0.3166999999999973
690.006 0.366699999999998
690.298 0.2834000000000003
690.592 0.366699999999998
690.886 0.3999999999999986
691.178 0.29999999999999716
691.473 0.34999999999999787
691.767 0.46669999999999945
692.059 0.29999999999999716
692.353 0.3166999999999973
692.645 0.2834000000000003
692.939 0.3999999999999986
693.233 0.26670000000000016
693.525 0.25
693.819 0.3333999999999975
694.111 0.29999999999999716
694.405 0.3999999999999986
694.699 0.3333999999999975
694.991 0.41669999999999874
695.285 0.25
695.577 0.2834000000000003
695.871 0.3166999999999973
696.165 0.1833999999999989
696.457 0.3166999999999973
696.751 0.46669999999999945
697.043 0.2834000000000003
697.337 0.25
697.629 0.29999999999999716
697.923 0.2834000000000003
698.217 0.366699999999998
698.509 0.3833999999999982
698.802 0.2834000000000003
699.094 0.26670000000000016
699.388 0.26670000000000016
699.68 0.366699999999998
699.974 0.1833999999999989
700.266 0.29999999999999716
700.56 0.29999999999999716
700.853 0.2333999999999996
701.145 0.26670000000000016
701.439 0.3999999999999986
701.731 0.3833999999999982
702.025 0.2834000000000003
702.316 0.26670000000000016
702.61 0.1833999999999989
702.902 0.2834000000000003
703.196 0.34999999999999787
703.487 0.25
703.781 0.1999999999999993
704.073 0.4333999999999989
704.367 0.2834000000000003
704.658 0.29999999999999716
704.952 0.26670000000000016
705.244 0.26670000000000016
705.537 0.2333999999999996
705.829 0.29999999999999716
706.122 0.3166999999999973
706.414 0.2834000000000003
706.708 0.26670000000000016
706.999 0.34999999999999787
707.293 0.3333999999999975
