# Created: 2019-11-28 13:05:43.695489
# rshift intensity
76.1738 0.25
76.4989 0.23329999999999984
76.824 0.21669999999999945
77.1491 0.16669999999999874
77.4721 0.13329999999999842
77.7972 0.08329999999999771
78.1223 0.09999999999999787
78.4474 0.21669999999999945
78.7724 0.09999999999999787
79.0975 0.0
79.4204 0.0
79.7454 0.01670000000000016
80.0704 0.09999999999999787
80.3954 0.06669999999999732
80.7204 0.09999999999999787
81.0454 0.18329999999999913
81.3682 0.11669999999999803
81.6931 0.08329999999999771
82.0181 0.14999999999999858
82.343 0.11669999999999803
82.6679 0.06669999999999732
82.9907 0.06669999999999732
83.3156 0.04999999999999716
83.6405 0.08329999999999771
83.9654 0.09999999999999787
84.2903 0.09999999999999787
84.613 0.13329999999999842
84.9378 0.1999999999999993
85.2626 0.033299999999997
85.5875 0.21669999999999945
85.9101 0.08329999999999771
86.2349 0.08329999999999771
86.5597 0.13329999999999842
86.8845 0.11669999999999803
87.2093 0.16669999999999874
87.5319 0.04999999999999716
87.8566 0.11669999999999803
88.1814 0.04999999999999716
88.5061 0.04999999999999716
88.8286 0.08329999999999771
89.1533 0.23329999999999984
89.478 0.033299999999997
89.8027 0.18329999999999913
90.1252 0.18329999999999913
90.4499 0.1999999999999993
90.7745 0.04999999999999716
91.0992 0.18329999999999913
91.4216 0.11669999999999803
91.7462 0.09999999999999787
92.0708 0.16669999999999874
92.3954 0.13329999999999842
92.7179 0.06669999999999732
93.0424 0.06669999999999732
93.367 0.06669999999999732
93.6915 0.14999999999999858
94.0139 0.04999999999999716
94.3384 0.09999999999999787
94.6629 0.09999999999999787
94.9853 0.14999999999999858
95.3098 0.14999999999999858
95.6342 0.04999999999999716
95.9587 0.04999999999999716
96.281 0.09999999999999787
96.6055 0.06669999999999732
96.9299 0.11669999999999803
97.2522 0.14999999999999858
97.5766 0.11669999999999803
97.901 0.04999999999999716
98.2232 0.16669999999999874
98.5476 0.18329999999999913
98.8719 0.14999999999999858
99.1942 0.11669999999999803
99.5185 0.08329999999999771
99.8428 0.11669999999999803
100.165 0.04999999999999716
100.489 0.14999999999999858
100.814 0.16669999999999874
101.136 0.09999999999999787
101.46 0.25
101.784 0.13329999999999842
102.106 0.06669999999999732
102.431 0.11669999999999803
102.755 0.13329999999999842
103.077 0.08329999999999771
103.401 0.06669999999999732
103.725 0.11669999999999803
104.047 0.18329999999999913
104.372 0.08329999999999771
104.696 0.13329999999999842
105.018 0.26670000000000016
105.342 0.0
105.666 0.13329999999999842
105.988 0.08329999999999771
106.312 0.13329999999999842
106.634 0.06669999999999732
106.958 0.18329999999999913
107.282 0.16669999999999874
107.604 0.06669999999999732
107.928 0.11669999999999803
108.252 0.18329999999999913
108.574 0.14999999999999858
108.898 0.11669999999999803
109.22 0.06669999999999732
109.544 0.14999999999999858
109.868 0.14999999999999858
110.19 0.14999999999999858
110.514 0.14999999999999858
110.836 0.13329999999999842
111.159 0.11669999999999803
111.483 0.04999999999999716
111.805 0.08329999999999771
112.129 0.13329999999999842
112.451 0.06669999999999732
112.775 0.04999999999999716
113.096 0.06669999999999732
113.42 0.09999999999999787
113.744 0.13329999999999842
114.066 0.04999999999999716
114.39 0.11669999999999803
114.711 0.09999999999999787
115.035 0.08329999999999771
115.357 0.14999999999999858
115.681 0.08329999999999771
116.004 0.09999999999999787
116.326 0.16669999999999874
116.65 0.06669999999999732
116.971 0.1999999999999993
117.295 0.08329999999999771
117.617 0.08329999999999771
117.94 0.16669999999999874
118.262 0.01670000000000016
118.586 0.16669999999999874
118.907 0.033299999999997
119.231 0.11669999999999803
119.554 0.11669999999999803
119.876 0.033299999999997
120.199 0.09999999999999787
120.521 0.033299999999997
120.845 0.08329999999999771
121.166 0.1999999999999993
121.49 0.06669999999999732
121.811 0.21669999999999945
122.135 0.09999999999999787
122.456 0.18329999999999913
122.78 0.11669999999999803
123.101 0.11669999999999803
123.424 0.18329999999999913
123.746 0.16669999999999874
124.069 0.16669999999999874
124.391 0.13329999999999842
124.714 0.13329999999999842
125.035 0.11669999999999803
125.359 0.08329999999999771
125.68 0.14999999999999858
126.004 0.09999999999999787
126.325 0.16669999999999874
126.648 0.14999999999999858
126.97 0.13329999999999842
127.291 0.18329999999999913
127.614 0.13329999999999842
127.935 0.09999999999999787
128.259 0.14999999999999858
128.58 0.11669999999999803
128.903 0.16669999999999874
129.224 0.16669999999999874
129.548 0.08329999999999771
129.869 0.16669999999999874
130.192 0.13329999999999842
130.513 0.23329999999999984
130.834 0.13329999999999842
131.158 0.21669999999999945
131.479 0.21669999999999945
131.802 0.1999999999999993
132.123 0.14999999999999858
132.446 0.11669999999999803
132.767 0.23329999999999984
133.09 0.06669999999999732
133.411 0.09999999999999787
133.733 0.13329999999999842
134.056 0.04999999999999716
134.377 0.11669999999999803
134.7 0.11669999999999803
135.021 0.13329999999999842
135.342 0.13329999999999842
135.665 0.04999999999999716
135.986 0.16669999999999874
136.309 0.13329999999999842
136.63 0.11669999999999803
136.951 0.13329999999999842
137.274 0.18329999999999913
137.595 0.11669999999999803
137.918 0.04999999999999716
138.238 0.11669999999999803
138.559 0.04999999999999716
138.882 0.09999999999999787
139.203 0.23329999999999984
139.526 0.033299999999997
139.847 0.11669999999999803
140.168 0.13329999999999842
140.491 0.09999999999999787
140.811 0.14999999999999858
141.132 0.11669999999999803
141.455 0.1999999999999993
141.776 0.16669999999999874
142.097 0.23329999999999984
142.419 0.16669999999999874
142.74 0.18329999999999913
143.061 0.21669999999999945
143.384 0.16669999999999874
143.704 0.09999999999999787
144.027 0.25
144.348 0.16669999999999874
144.668 0.13329999999999842
144.991 0.16669999999999874
145.312 0.09999999999999787
145.632 0.21669999999999945
145.955 0.11669999999999803
146.276 0.23329999999999984
146.596 0.04999999999999716
146.917 0.13329999999999842
147.24 0.18329999999999913
147.56 0.16669999999999874
147.881 0.16669999999999874
148.203 0.11669999999999803
148.524 0.09999999999999787
148.844 0.16669999999999874
149.167 0.13329999999999842
149.487 0.11669999999999803
149.808 0.06669999999999732
150.131 0.23329999999999984
150.451 0.16669999999999874
150.771 0.14999999999999858
151.092 0.08329999999999771
151.414 0.18329999999999913
151.735 0.21669999999999945
152.055 0.29999999999999716
152.378 0.11669999999999803
152.698 0.14999999999999858
153.018 0.11669999999999803
153.339 0.08329999999999771
153.661 0.06669999999999732
153.982 0.09999999999999787
154.302 0.18329999999999913
154.622 0.11669999999999803
154.945 0.09999999999999787
155.265 0.13329999999999842
155.585 0.14999999999999858
155.905 0.25
156.228 0.08329999999999771
156.548 0.26670000000000016
156.868 0.13329999999999842
157.188 0.13329999999999842
157.511 0.21669999999999945
157.831 0.16669999999999874
158.151 0.14999999999999858
158.471 0.14999999999999858
158.794 0.13329999999999842
159.114 0.14999999999999858
159.434 0.16669999999999874
159.754 0.366699999999998
160.074 0.08329999999999771
160.396 0.09999999999999787
160.717 0.14999999999999858
161.037 0.13329999999999842
161.357 0.21669999999999945
161.679 0.11669999999999803
161.999 0.25
162.319 0.21669999999999945
162.639 0.13329999999999842
162.959 0.21669999999999945
163.281 0.23329999999999984
163.601 0.16669999999999874
163.921 0.13329999999999842
164.241 0.11669999999999803
164.561 0.14999999999999858
164.881 0.06669999999999732
165.203 0.18329999999999913
165.523 0.18329999999999913
165.843 0.16669999999999874
166.163 0.25
166.483 0.25
166.803 0.16669999999999874
167.125 0.18329999999999913
167.445 0.11669999999999803
167.764 0.21669999999999945
168.084 0.16669999999999874
168.404 0.25
168.724 0.08329999999999771
169.046 0.21669999999999945
169.366 0.1999999999999993
169.685 0.23329999999999984
170.005 0.21669999999999945
170.325 0.11669999999999803
170.645 0.1999999999999993
170.964 0.21669999999999945
171.286 0.14999999999999858
171.606 0.1999999999999993
171.926 0.13329999999999842
172.245 0.21669999999999945
172.565 0.23329999999999984
172.885 0.09999999999999787
173.204 0.18329999999999913
173.524 0.13329999999999842
173.846 0.18329999999999913
174.166 0.21669999999999945
174.485 0.13329999999999842
174.805 0.16669999999999874
175.124 0.08329999999999771
175.444 0.18329999999999913
175.764 0.09999999999999787
176.083 0.09999999999999787
176.403 0.14999999999999858
176.722 0.0
177.044 0.11669999999999803
177.363 0.13329999999999842
177.683 0.16669999999999874
178.002 0.06669999999999732
178.322 0.1999999999999993
178.641 0.14999999999999858
178.961 0.14999999999999858
179.28 0.16669999999999874
179.6 0.14999999999999858
179.919 0.14999999999999858
180.239 0.1999999999999993
180.558 0.18329999999999913
180.877 0.11669999999999803
181.197 0.18329999999999913
181.516 0.16669999999999874
181.838 0.1999999999999993
182.157 0.11669999999999803
182.476 0.04999999999999716
182.796 0.1999999999999993
183.115 0.13329999999999842
183.434 0.13329999999999842
183.754 0.09999999999999787
184.073 0.08329999999999771
184.392 0.16669999999999874
184.712 0.08329999999999771
185.031 0.21669999999999945
185.35 0.14999999999999858
185.669 0.18329999999999913
185.989 0.16669999999999874
186.308 0.21669999999999945
186.627 0.1999999999999993
186.946 0.18329999999999913
187.265 0.23329999999999984
187.585 0.14999999999999858
187.904 0.11669999999999803
188.223 0.14999999999999858
188.542 0.11669999999999803
188.861 0.21669999999999945
189.18 0.1999999999999993
189.499 0.11669999999999803
189.818 0.1999999999999993
190.138 0.1999999999999993
190.457 0.14999999999999858
190.776 0.1999999999999993
191.095 0.11669999999999803
191.414 0.23329999999999984
191.733 0.18329999999999913
192.052 0.04999999999999716
192.371 0.21669999999999945
192.69 0.16669999999999874
193.009 0.1999999999999993
193.328 0.06669999999999732
193.647 0.23329999999999984
193.966 0.18329999999999913
194.285 0.11669999999999803
194.602 0.16669999999999874
194.92 0.08329999999999771
195.239 0.16669999999999874
195.558 0.1999999999999993
195.877 0.23329999999999984
196.196 0.13329999999999842
196.515 0.1999999999999993
196.834 0.23329999999999984
197.153 0.14999999999999858
197.471 0.11669999999999803
197.79 0.1999999999999993
198.109 0.08329999999999771
198.428 0.09999999999999787
198.747 0.11669999999999803
199.065 0.21669999999999945
199.382 0.13329999999999842
199.701 0.04999999999999716
200.02 0.18329999999999913
200.338 0.11669999999999803
200.657 0.13329999999999842
200.976 0.1999999999999993
201.295 0.08329999999999771
201.613 0.09999999999999787
201.932 0.09999999999999787
202.251 0.11669999999999803
202.567 0.18329999999999913
202.886 0.11669999999999803
203.204 0.18329999999999913
203.523 0.16669999999999874
203.842 0.25
204.16 0.25
204.479 0.09999999999999787
204.797 0.16669999999999874
205.114 0.13329999999999842
205.433 0.18329999999999913
205.751 0.16669999999999874
206.07 0.18329999999999913
206.388 0.13329999999999842
206.707 0.033299999999997
207.025 0.14999999999999858
207.342 0.21669999999999945
207.66 0.09999999999999787
207.979 0.13329999999999842
208.297 0.21669999999999945
208.615 0.18329999999999913
208.934 0.09999999999999787
209.25 0.14999999999999858
209.569 0.16669999999999874
209.887 0.08329999999999771
210.205 0.16669999999999874
210.524 0.14999999999999858
210.842 0.23329999999999984
211.158 0.18329999999999913
211.477 0.23329999999999984
211.795 0.23329999999999984
212.113 0.14999999999999858
212.432 0.08329999999999771
212.75 0.08329999999999771
213.066 0.14999999999999858
213.385 0.08329999999999771
213.703 0.11669999999999803
214.021 0.08329999999999771
214.339 0.09999999999999787
214.656 0.16669999999999874
214.974 0.16669999999999874
215.292 0.18329999999999913
215.61 0.14999999999999858
215.926 0.1999999999999993
216.245 0.13329999999999842
216.563 0.21669999999999945
216.881 0.1999999999999993
217.199 0.13329999999999842
217.515 0.1999999999999993
217.833 0.16669999999999874
218.151 0.26670000000000016
218.469 0.18329999999999913
218.785 0.21669999999999945
219.104 0.21669999999999945
219.422 0.14999999999999858
219.74 0.25
220.056 0.13329999999999842
220.374 0.25
220.692 0.14999999999999858
221.01 0.16669999999999874
221.326 0.25
221.644 0.1999999999999993
221.962 0.1999999999999993
222.28 0.13329999999999842
222.596 0.13329999999999842
222.914 0.1999999999999993
223.232 0.09999999999999787
223.547 0.25
223.865 0.1999999999999993
224.183 0.14999999999999858
224.501 0.18329999999999913
224.817 0.1999999999999993
225.135 0.26670000000000016
225.453 0.08329999999999771
225.768 0.06669999999999732
226.086 0.21669999999999945
226.404 0.26670000000000016
226.722 0.26670000000000016
227.038 0.23329999999999984
227.355 0.18329999999999913
227.673 0.21669999999999945
227.989 0.1999999999999993
228.307 0.1999999999999993
228.625 0.18329999999999913
228.94 0.18329999999999913
229.258 0.1999999999999993
229.576 0.16669999999999874
229.891 0.21669999999999945
230.209 0.04999999999999716
230.527 0.18329999999999913
230.842 0.18329999999999913
231.16 0.18329999999999913
231.478 0.1999999999999993
231.793 0.14999999999999858
232.111 0.14999999999999858
232.428 0.1999999999999993
232.744 0.1999999999999993
233.062 0.21669999999999945
233.379 0.26670000000000016
233.695 0.16669999999999874
234.012 0.1999999999999993
234.33 0.13329999999999842
234.645 0.26670000000000016
234.963 0.1999999999999993
235.278 0.25
235.596 0.16669999999999874
235.913 0.1999999999999993
236.229 0.13329999999999842
236.546 0.21669999999999945
236.864 0.21669999999999945
237.179 0.11669999999999803
237.497 0.25
237.812 0.08329999999999771
238.129 0.1999999999999993
238.447 0.14999999999999858
238.762 0.283299999999997
239.08 0.09999999999999787
239.395 0.23329999999999984
239.712 0.16669999999999874
240.03 0.283299999999997
240.345 0.14999999999999858
240.662 0.11669999999999803
240.978 0.26670000000000016
241.295 0.14999999999999858
241.61 0.25
241.927 0.23329999999999984
242.245 0.1999999999999993
242.56 0.18329999999999913
242.877 0.283299999999997
243.192 0.3166999999999973
243.51 0.11669999999999803
243.825 0.18329999999999913
244.142 0.14999999999999858
244.459 0.18329999999999913
244.774 0.23329999999999984
245.092 0.18329999999999913
245.407 0.13329999999999842
245.724 0.283299999999997
246.039 0.13329999999999842
246.356 0.23329999999999984
246.671 0.16669999999999874
246.988 0.14999999999999858
247.303 0.18329999999999913
247.62 0.14999999999999858
247.938 0.16669999999999874
248.253 0.23329999999999984
248.57 0.08329999999999771
248.885 0.18329999999999913
249.202 0.1999999999999993
249.517 0.13329999999999842
249.834 0.23329999999999984
250.149 0.29999999999999716
250.466 0.11669999999999803
250.781 0.16669999999999874
251.098 0.25
251.412 0.1999999999999993
251.729 0.21669999999999945
252.044 0.1999999999999993
252.361 0.18329999999999913
252.676 0.25
252.993 0.21669999999999945
253.308 0.11669999999999803
253.625 0.08329999999999771
253.94 0.1999999999999993
254.256 0.23329999999999984
254.571 0.26670000000000016
254.888 0.16669999999999874
255.203 0.13329999999999842
255.518 0.25
255.834 0.23329999999999984
256.149 0.1999999999999993
256.466 0.18329999999999913
256.781 0.11669999999999803
257.097 0.16669999999999874
257.412 0.25
257.729 0.21669999999999945
258.044 0.13329999999999842
258.36 0.14999999999999858
258.675 0.25
258.99 0.23329999999999984
259.306 0.18329999999999913
259.621 0.283299999999997
259.938 0.25
260.252 0.1999999999999993
260.569 0.16669999999999874
260.883 0.13329999999999842
261.198 0.26670000000000016
261.515 0.14999999999999858
261.829 0.16669999999999874
262.146 0.23329999999999984
262.46 0.14999999999999858
262.775 0.26670000000000016
263.091 0.18329999999999913
263.406 0.1999999999999993
263.723 0.23329999999999984
264.037 0.16669999999999874
264.354 0.25
264.668 0.13329999999999842
264.982 0.18329999999999913
265.299 0.1999999999999993
265.613 0.23329999999999984
265.928 0.18329999999999913
266.244 0.09999999999999787
266.559 0.14999999999999858
266.875 0.366699999999998
267.189 0.18329999999999913
267.504 0.14999999999999858
267.82 0.16669999999999874
268.134 0.1999999999999993
268.449 0.23329999999999984
268.765 0.13329999999999842
269.079 0.26670000000000016
269.394 0.11669999999999803
269.71 0.13329999999999842
270.024 0.1999999999999993
270.341 0.25
270.655 0.18329999999999913
270.969 0.18329999999999913
271.286 0.14999999999999858
271.6 0.3832999999999984
271.914 0.14999999999999858
272.23 0.08329999999999771
272.544 0.11669999999999803
272.859 0.13329999999999842
273.175 0.04999999999999716
273.489 0.23329999999999984
273.803 0.29999999999999716
274.119 0.13329999999999842
274.433 0.29999999999999716
274.747 0.13329999999999842
275.062 0.09999999999999787
275.378 0.283299999999997
275.692 0.11669999999999803
276.006 0.21669999999999945
276.322 0.14999999999999858
276.636 0.21669999999999945
276.95 0.14999999999999858
277.266 0.14999999999999858
277.58 0.1999999999999993
277.894 0.16669999999999874
278.208 0.26670000000000016
278.524 0.1999999999999993
278.838 0.23329999999999984
279.152 0.21669999999999945
279.468 0.3332999999999977
279.782 0.29999999999999716
280.096 0.21669999999999945
280.41 0.283299999999997
280.726 0.25
281.04 0.23329999999999984
281.354 0.23329999999999984
281.668 0.18329999999999913
281.983 0.3166999999999973
282.297 0.16669999999999874
282.611 0.14999999999999858
282.925 0.18329999999999913
283.241 0.25
283.555 0.11669999999999803
283.868 0.23329999999999984
284.182 0.1999999999999993
284.498 0.23329999999999984
284.812 0.21669999999999945
285.126 0.21669999999999945
285.439 0.21669999999999945
285.753 0.16669999999999874
286.069 0.1999999999999993
286.383 0.13329999999999842
286.696 0.25
287.01 0.29999999999999716
287.326 0.29999999999999716
287.639 0.16669999999999874
287.953 0.1999999999999993
288.267 0.16669999999999874
288.58 0.283299999999997
288.896 0.09999999999999787
289.21 0.18329999999999913
289.523 0.21669999999999945
289.837 0.21669999999999945
290.15 0.283299999999997
290.466 0.13329999999999842
290.78 0.13329999999999842
291.093 0.09999999999999787
291.407 0.23329999999999984
291.72 0.18329999999999913
292.034 0.09999999999999787
292.349 0.14999999999999858
292.663 0.21669999999999945
292.976 0.11669999999999803
293.29 0.1999999999999993
293.603 0.11669999999999803
293.917 0.14999999999999858
294.232 0.23329999999999984
294.546 0.18329999999999913
294.859 0.1999999999999993
295.172 0.16669999999999874
295.486 0.25
295.799 0.16669999999999874
296.113 0.1999999999999993
296.428 0.06669999999999732
296.741 0.21669999999999945
297.055 0.16669999999999874
297.368 0.16669999999999874
297.681 0.1999999999999993
297.995 0.23329999999999984
298.308 0.25
298.621 0.13329999999999842
298.937 0.23329999999999984
299.25 0.18329999999999913
299.563 0.23329999999999984
299.876 0.14999999999999858
300.19 0.23329999999999984
300.503 0.16669999999999874
300.816 0.26670000000000016
301.129 0.16669999999999874
301.442 0.23329999999999984
301.756 0.18329999999999913
302.071 0.26670000000000016
302.384 0.23329999999999984
302.697 0.23329999999999984
303.01 0.29999999999999716
303.323 0.23329999999999984
303.637 0.09999999999999787
303.95 0.283299999999997
304.263 0.23329999999999984
304.576 0.16669999999999874
304.889 0.283299999999997
305.202 0.18329999999999913
305.515 0.16669999999999874
305.828 0.21669999999999945
306.141 0.16669999999999874
306.456 0.23329999999999984
306.769 0.25
307.082 0.21669999999999945
307.395 0.16669999999999874
307.708 0.16669999999999874
308.021 0.16669999999999874
308.334 0.13329999999999842
308.647 0.23329999999999984
308.96 0.1999999999999993
309.273 0.26670000000000016
309.586 0.18329999999999913
309.899 0.09999999999999787
310.212 0.21669999999999945
310.525 0.1999999999999993
310.838 0.18329999999999913
311.15 0.21669999999999945
311.463 0.23329999999999984
311.776 0.23329999999999984
312.089 0.14999999999999858
312.402 0.26670000000000016
312.715 0.1999999999999993
313.027 0.23329999999999984
313.34 0.21669999999999945
313.653 0.18329999999999913
313.966 0.34999999999999787
314.278 0.23329999999999984
314.591 0.3332999999999977
314.904 0.16669999999999874
315.217 0.21669999999999945
315.529 0.23329999999999984
315.842 0.26670000000000016
316.155 0.21669999999999945
316.467 0.23329999999999984
316.78 0.23329999999999984
317.093 0.18329999999999913
317.405 0.25
317.718 0.26670000000000016
318.031 0.18329999999999913
318.343 0.25
318.656 0.29999999999999716
318.969 0.1999999999999993
319.281 0.283299999999997
319.592 0.29999999999999716
319.904 0.23329999999999984
320.217 0.1999999999999993
320.529 0.26670000000000016
320.842 0.26670000000000016
321.154 0.18329999999999913
321.467 0.29999999999999716
321.779 0.23329999999999984
322.092 0.283299999999997
322.404 0.3166999999999973
322.717 0.21669999999999945
323.029 0.18329999999999913
323.342 0.29999999999999716
323.654 0.23329999999999984
323.965 0.18329999999999913
324.277 0.1999999999999993
324.589 0.14999999999999858
324.902 0.16669999999999874
325.214 0.23329999999999984
325.527 0.26670000000000016
325.839 0.29999999999999716
326.151 0.25
326.464 0.26670000000000016
326.776 0.23329999999999984
327.086 0.283299999999997
327.399 0.3332999999999977
327.711 0.1999999999999993
328.023 0.366699999999998
328.335 0.3166999999999973
328.648 0.3832999999999984
328.96 0.283299999999997
329.27 0.25
329.582 0.18329999999999913
329.895 0.25
330.207 0.46669999999999945
330.519 0.3332999999999977
330.831 0.34999999999999787
331.143 0.34999999999999787
331.454 0.1999999999999993
331.766 0.34999999999999787
332.078 0.3166999999999973
332.39 0.3999999999999986
332.702 0.3832999999999984
333.014 0.3332999999999977
333.326 0.34999999999999787
333.636 0.26670000000000016
333.948 0.3166999999999973
334.261 0.3332999999999977
334.573 0.25
334.885 0.3332999999999977
335.195 0.23329999999999984
335.507 0.3332999999999977
335.819 0.25
336.131 0.283299999999997
336.443 0.26670000000000016
336.753 0.18329999999999913
337.065 0.23329999999999984
337.377 0.26670000000000016
337.689 0.26670000000000016
338.001 0.23329999999999984
338.31 0.21669999999999945
338.622 0.1999999999999993
338.934 0.3332999999999977
339.246 0.16669999999999874
339.558 0.283299999999997
339.868 0.21669999999999945
340.18 0.18329999999999913
340.492 0.21669999999999945
340.804 0.3332999999999977
341.113 0.1999999999999993
341.425 0.25
341.737 0.25
342.049 0.41669999999999874
342.361 0.366699999999998
342.67 0.21669999999999945
342.982 0.283299999999997
343.294 0.3332999999999977
343.606 0.18329999999999913
343.915 0.09999999999999787
344.227 0.29999999999999716
344.539 0.29999999999999716
344.849 0.26670000000000016
345.16 0.283299999999997
345.472 0.34999999999999787
345.784 0.29999999999999716
346.093 0.23329999999999984
346.405 0.29999999999999716
346.717 0.3166999999999973
347.028 0.34999999999999787
347.338 0.18329999999999913
347.649 0.23329999999999984
347.961 0.3332999999999977
348.271 0.366699999999998
348.582 0.23329999999999984
348.894 0.23329999999999984
349.205 0.34999999999999787
349.515 0.283299999999997
349.826 0.29999999999999716
350.138 0.18329999999999913
350.447 0.34999999999999787
350.759 0.29999999999999716
351.07 0.29999999999999716
351.38 0.283299999999997
351.691 0.21669999999999945
352.003 0.14999999999999858
352.312 0.25
352.624 0.29999999999999716
352.935 0.23329999999999984
353.245 0.25
353.556 0.23329999999999984
353.867 0.21669999999999945
354.177 0.41669999999999874
354.488 0.29999999999999716
354.799 0.25
355.109 0.26670000000000016
355.42 0.41669999999999874
355.732 0.23329999999999984
356.041 0.13329999999999842
356.352 0.16669999999999874
356.663 0.29999999999999716
356.973 0.26670000000000016
357.284 0.3166999999999973
357.593 0.14999999999999858
357.905 0.21669999999999945
358.216 0.18329999999999913
358.525 0.16669999999999874
358.836 0.3166999999999973
359.147 0.23329999999999984
359.457 0.25
359.768 0.21669999999999945
360.077 0.26670000000000016
360.388 0.366699999999998
360.699 0.26670000000000016
361.008 0.3999999999999986
361.32 0.18329999999999913
361.629 0.21669999999999945
361.94 0.25
362.251 0.21669999999999945
362.56 0.3832999999999984
362.871 0.18329999999999913
363.18 0.34999999999999787
363.491 0.34999999999999787
363.8 0.283299999999997
364.111 0.23329999999999984
364.422 0.14999999999999858
364.731 0.18329999999999913
365.042 0.29999999999999716
365.351 0.29999999999999716
365.662 0.25
365.971 0.29999999999999716
366.282 0.16669999999999874
366.593 0.3166999999999973
366.902 0.23329999999999984
367.213 0.283299999999997
367.522 0.25
367.833 0.23329999999999984
368.142 0.18329999999999913
368.453 0.283299999999997
368.762 0.23329999999999984
369.073 0.26670000000000016
369.381 0.29999999999999716
369.692 0.25
370.001 0.25
370.312 0.29999999999999716
370.623 0.25
370.932 0.18329999999999913
371.242 0.3332999999999977
371.551 0.23329999999999984
371.862 0.43329999999999913
372.171 0.3166999999999973
372.482 0.34999999999999787
372.79 0.3166999999999973
373.101 0.34999999999999787
373.41 0.3166999999999973
373.721 0.14999999999999858
374.029 0.26670000000000016
374.34 0.26670000000000016
374.649 0.16669999999999874
374.959 0.26670000000000016
375.268 0.23329999999999984
375.577 0.1999999999999993
375.887 0.366699999999998
376.196 0.18329999999999913
376.506 0.23329999999999984
376.815 0.283299999999997
377.126 0.26670000000000016
377.434 0.23329999999999984
377.745 0.3332999999999977
378.053 0.21669999999999945
378.364 0.25
378.672 0.283299999999997
378.983 0.3332999999999977
379.292 0.26670000000000016
379.6 0.21669999999999945
379.911 0.23329999999999984
380.219 0.26670000000000016
380.53 0.23329999999999984
380.838 0.23329999999999984
381.148 0.26670000000000016
381.457 0.283299999999997
381.767 0.283299999999997
382.076 0.3832999999999984
382.384 0.18329999999999913
382.695 0.23329999999999984
383.003 0.26670000000000016
383.313 0.21669999999999945
383.622 0.283299999999997
383.93 0.3166999999999973
384.24 0.3166999999999973
384.549 0.13329999999999842
384.859 0.3166999999999973
385.167 0.23329999999999984
385.476 0.29999999999999716
385.786 0.21669999999999945
386.094 0.25
386.405 0.25
386.713 0.21669999999999945
387.021 0.26670000000000016
387.331 0.3332999999999977
387.64 0.11669999999999803
387.948 0.366699999999998
388.258 0.13329999999999842
388.566 0.26670000000000016
388.877 0.34999999999999787
389.185 0.21669999999999945
389.493 0.283299999999997
389.803 0.21669999999999945
390.111 0.1999999999999993
390.419 0.25
390.729 0.41669999999999874
391.038 0.23329999999999984
391.346 0.1999999999999993
391.656 0.26670000000000016
391.964 0.16669999999999874
392.272 0.26670000000000016
392.582 0.3332999999999977
392.89 0.3832999999999984
393.198 0.283299999999997
393.508 0.283299999999997
393.816 0.4499999999999993
394.124 0.23329999999999984
394.434 0.366699999999998
394.742 0.283299999999997
395.05 0.23329999999999984
395.36 0.34999999999999787
395.668 0.21669999999999945
395.976 0.25
396.286 0.3332999999999977
396.594 0.26670000000000016
396.902 0.26670000000000016
397.21 0.23329999999999984
397.52 0.25
397.828 0.25
398.135 0.26670000000000016
398.445 0.18329999999999913
398.753 0.283299999999997
399.061 0.21669999999999945
399.369 0.23329999999999984
399.679 0.3332999999999977
399.987 0.3166999999999973
400.294 0.366699999999998
400.604 0.21669999999999945
400.912 0.23329999999999984
401.22 0.29999999999999716
401.527 0.3832999999999984
401.837 0.283299999999997
402.145 0.25
402.453 0.29999999999999716
402.76 0.23329999999999984
403.07 0.3999999999999986
403.378 0.25
403.686 0.3166999999999973
403.993 0.366699999999998
404.303 0.25
404.611 0.29999999999999716
404.918 0.1999999999999993
405.226 0.3332999999999977
405.533 0.3332999999999977
405.843 0.25
406.151 0.25
406.458 0.18329999999999913
406.766 0.29999999999999716
407.076 0.3832999999999984
407.383 0.3332999999999977
407.691 0.34999999999999787
407.998 0.283299999999997
408.306 0.3166999999999973
408.615 0.34999999999999787
408.923 0.3832999999999984
409.23 0.3832999999999984
409.538 0.29999999999999716
409.845 0.366699999999998
410.153 0.41669999999999874
410.462 0.3832999999999984
410.77 0.3832999999999984
411.077 0.3166999999999973
411.384 0.3332999999999977
411.692 0.283299999999997
412.001 0.25
412.309 0.41669999999999874
412.616 0.41669999999999874
412.923 0.4499999999999993
413.231 0.3166999999999973
413.538 0.3999999999999986
413.845 0.3832999999999984
414.155 0.366699999999998
414.462 0.43329999999999913
414.769 0.366699999999998
415.077 0.5499999999999972
415.384 0.3999999999999986
415.691 0.4499999999999993
415.999 0.5
416.308 0.48329999999999984
416.615 0.5167000000000002
416.922 0.46669999999999945
417.23 0.533299999999997
417.537 0.6499999999999986
417.844 0.5832999999999977
418.151 0.5832999999999977
418.458 0.6332999999999984
418.768 0.5666999999999973
419.075 0.5832999999999977
419.382 0.7667000000000002
419.689 0.6332999999999984
419.996 0.7999999999999972
420.303 0.8166999999999973
420.61 0.9332999999999991
420.918 0.8999999999999986
421.225 0.8832999999999984
421.532 0.9666999999999994
421.841 1.033299999999997
422.148 1.1999999999999993
422.455 1.033299999999997
422.762 1.1832999999999991
423.069 1.366699999999998
423.376 1.2332999999999998
423.683 1.25
423.99 1.4832999999999998
424.297 1.2667000000000002
424.604 1.3166999999999973
424.911 1.4499999999999993
425.218 1.1832999999999991
425.525 1.533299999999997
425.832 1.2999999999999972
426.139 1.3832999999999984
426.446 1.3166999999999973
426.753 1.3499999999999979
427.061 1.4332999999999991
427.368 1.2999999999999972
427.675 1.1999999999999993
427.982 1.3332999999999977
428.289 1.1666999999999987
428.596 1.1999999999999993
428.903 1.0832999999999977
429.209 1.1832999999999991
429.516 0.9832999999999998
429.823 0.9332999999999991
430.13 0.8166999999999973
430.437 0.8166999999999973
430.743 1.0499999999999972
431.05 0.8499999999999979
431.357 0.8499999999999979
431.664 0.8499999999999979
431.97 0.7667000000000002
432.277 0.7332999999999998
432.584 0.7332999999999998
432.891 0.6332999999999984
433.197 0.6499999999999986
433.504 0.7999999999999972
433.811 0.6332999999999984
434.117 0.75
434.424 0.6999999999999993
434.731 0.5832999999999977
435.037 0.5499999999999972
435.344 0.3999999999999986
435.65 0.6666999999999987
435.957 0.43329999999999913
436.262 0.3832999999999984
436.568 0.41669999999999874
436.875 0.6499999999999986
437.181 0.3166999999999973
437.488 0.48329999999999984
437.794 0.3166999999999973
438.101 0.5167000000000002
438.407 0.43329999999999913
438.714 0.366699999999998
439.02 0.3999999999999986
439.327 0.5167000000000002
439.633 0.29999999999999716
439.94 0.4499999999999993
440.246 0.3832999999999984
440.553 0.3332999999999977
440.859 0.3832999999999984
441.163 0.3999999999999986
441.47 0.41669999999999874
441.776 0.366699999999998
442.083 0.34999999999999787
442.389 0.3832999999999984
442.695 0.34999999999999787
443.002 0.3832999999999984
443.308 0.34999999999999787
443.614 0.366699999999998
443.921 0.3832999999999984
444.225 0.3166999999999973
444.531 0.26670000000000016
444.838 0.283299999999997
445.144 0.26670000000000016
445.45 0.34999999999999787
445.757 0.533299999999997
446.063 0.26670000000000016
446.369 0.29999999999999716
446.675 0.41669999999999874
446.979 0.41669999999999874
447.286 0.41669999999999874
447.592 0.3832999999999984
447.898 0.3832999999999984
448.204 0.48329999999999984
448.51 0.29999999999999716
448.817 0.3332999999999977
449.121 0.48329999999999984
449.427 0.3166999999999973
449.733 0.34999999999999787
450.039 0.3832999999999984
450.345 0.41669999999999874
450.651 0.3832999999999984
450.955 0.43329999999999913
451.261 0.41669999999999874
451.568 0.29999999999999716
451.874 0.4499999999999993
452.18 0.3832999999999984
452.486 0.23329999999999984
452.79 0.41669999999999874
453.096 0.3999999999999986
453.402 0.3999999999999986
453.708 0.533299999999997
454.014 0.3999999999999986
454.318 0.34999999999999787
454.624 0.3832999999999984
454.93 0.25
455.236 0.3166999999999973
455.541 0.366699999999998
455.845 0.25
456.151 0.3832999999999984
456.457 0.3999999999999986
456.763 0.23329999999999984
457.067 0.366699999999998
457.373 0.366699999999998
457.679 0.41669999999999874
457.985 0.34999999999999787
458.29 0.43329999999999913
458.594 0.3832999999999984
458.9 0.29999999999999716
459.206 0.23329999999999984
459.512 0.34999999999999787
459.815 0.283299999999997
460.121 0.41669999999999874
460.427 0.283299999999997
460.733 0.3166999999999973
461.036 0.26670000000000016
461.342 0.3999999999999986
461.648 0.26670000000000016
461.954 0.21669999999999945
462.257 0.25
462.563 0.26670000000000016
462.869 0.25
463.172 0.21669999999999945
463.478 0.3332999999999977
463.784 0.43329999999999913
464.089 0.23329999999999984
464.393 0.23329999999999984
464.699 0.23329999999999984
465.004 0.3332999999999977
465.308 0.283299999999997
465.613 0.29999999999999716
465.919 0.3999999999999986
466.225 0.26670000000000016
466.528 0.3166999999999973
466.834 0.34999999999999787
467.139 0.23329999999999984
467.443 0.26670000000000016
467.748 0.16669999999999874
468.054 0.18329999999999913
468.357 0.34999999999999787
468.663 0.366699999999998
468.968 0.1999999999999993
469.272 0.26670000000000016
469.577 0.3332999999999977
469.883 0.3832999999999984
470.186 0.1999999999999993
470.492 0.34999999999999787
470.797 0.4499999999999993
471.1 0.34999999999999787
471.406 0.283299999999997
471.711 0.3332999999999977
472.014 0.43329999999999913
472.32 0.29999999999999716
472.625 0.29999999999999716
472.929 0.34999999999999787
473.234 0.3166999999999973
473.539 0.25
473.843 0.23329999999999984
474.148 0.29999999999999716
474.451 0.34999999999999787
474.756 0.3832999999999984
475.062 0.41669999999999874
475.365 0.34999999999999787
475.67 0.43329999999999913
475.973 0.5167000000000002
476.279 0.43329999999999913
476.584 0.46669999999999945
476.887 0.3832999999999984
477.192 0.5999999999999979
477.498 0.5832999999999977
477.801 0.5167000000000002
478.106 0.6832999999999991
478.409 0.8166999999999973
478.714 0.7332999999999998
479.017 0.6666999999999987
479.322 0.866699999999998
479.628 0.7999999999999972
479.931 0.9166999999999987
480.236 0.7166999999999994
480.539 0.6832999999999991
480.844 0.6666999999999987
481.147 0.866699999999998
481.452 0.783299999999997
481.757 0.9499999999999993
482.06 0.9332999999999991
482.365 0.75
482.668 0.783299999999997
482.973 0.7332999999999998
483.276 0.7667000000000002
483.581 0.6832999999999991
483.884 0.783299999999997
484.189 0.48329999999999984
484.494 0.41669999999999874
484.797 0.533299999999997
485.102 0.48329999999999984
485.405 0.5
485.71 0.4499999999999993
486.013 0.29999999999999716
486.318 0.5499999999999972
486.621 0.41669999999999874
486.925 0.46669999999999945
487.228 0.41669999999999874
487.533 0.26670000000000016
487.836 0.34999999999999787
488.141 0.34999999999999787
488.444 0.3166999999999973
488.748 0.3332999999999977
489.051 0.3832999999999984
489.356 0.41669999999999874
489.659 0.34999999999999787
489.964 0.3999999999999986
490.266 0.21669999999999945
490.571 0.4499999999999993
490.874 0.283299999999997
491.179 0.48329999999999984
491.481 0.43329999999999913
491.786 0.46669999999999945
492.089 0.16669999999999874
492.393 0.3166999999999973
492.696 0.34999999999999787
493.001 0.4499999999999993
493.303 0.283299999999997
493.606 0.21669999999999945
493.911 0.3332999999999977
494.213 0.25
494.518 0.283299999999997
494.821 0.3332999999999977
495.125 0.1999999999999993
495.428 0.3332999999999977
495.732 0.25
496.035 0.43329999999999913
496.337 0.3332999999999977
496.642 0.3166999999999973
496.945 0.18329999999999913
497.249 0.3332999999999977
497.552 0.3166999999999973
497.856 0.3832999999999984
498.159 0.16669999999999874
498.461 0.18329999999999913
498.766 0.366699999999998
499.068 0.34999999999999787
499.372 0.34999999999999787
499.675 0.25
499.977 0.3332999999999977
500.282 0.23329999999999984
500.584 0.29999999999999716
500.889 0.26670000000000016
501.191 0.21669999999999945
501.493 0.21669999999999945
501.798 0.26670000000000016
502.1 0.3999999999999986
502.402 0.283299999999997
502.707 0.34999999999999787
503.009 0.283299999999997
503.314 0.3332999999999977
503.616 0.366699999999998
503.918 0.283299999999997
504.222 0.34999999999999787
504.525 0.34999999999999787
504.827 0.34999999999999787
505.131 0.21669999999999945
505.433 0.26670000000000016
505.736 0.23329999999999984
506.04 0.26670000000000016
506.342 0.25
506.646 0.29999999999999716
506.949 0.16669999999999874
507.251 0.21669999999999945
507.555 0.1999999999999993
507.857 0.41669999999999874
508.159 0.29999999999999716
508.461 0.1999999999999993
508.766 0.3166999999999973
509.068 0.29999999999999716
509.37 0.25
509.674 0.26670000000000016
509.976 0.21669999999999945
510.278 0.3166999999999973
510.582 0.25
510.884 0.25
511.186 0.29999999999999716
511.49 0.29999999999999716
511.792 0.3832999999999984
512.094 0.366699999999998
512.396 0.1999999999999993
512.701 0.16669999999999874
513.003 0.283299999999997
513.305 0.25
513.609 0.283299999999997
513.91 0.21669999999999945
514.212 0.3332999999999977
514.514 0.29999999999999716
514.818 0.43329999999999913
515.12 0.25
515.422 0.25
515.724 0.21669999999999945
516.028 0.25
516.33 0.1999999999999993
516.632 0.14999999999999858
516.934 0.23329999999999984
517.237 0.21669999999999945
517.539 0.18329999999999913
517.841 0.26670000000000016
518.143 0.34999999999999787
518.447 0.34999999999999787
518.749 0.3332999999999977
519.05 0.23329999999999984
519.352 0.25
519.656 0.23329999999999984
519.958 0.21669999999999945
520.26 0.366699999999998
520.561 0.25
520.863 0.3166999999999973
521.167 0.26670000000000016
521.468 0.283299999999997
521.77 0.3999999999999986
522.072 0.41669999999999874
522.376 0.283299999999997
522.677 0.25
522.979 0.283299999999997
523.281 0.283299999999997
523.582 0.29999999999999716
523.884 0.283299999999997
524.187 0.3166999999999973
524.489 0.283299999999997
524.791 0.25
525.092 0.26670000000000016
525.394 0.366699999999998
525.697 0.26670000000000016
525.999 0.29999999999999716
526.301 0.41669999999999874
526.602 0.283299999999997
526.904 0.23329999999999984
527.205 0.14999999999999858
527.507 0.3332999999999977
527.81 0.283299999999997
528.112 0.23329999999999984
528.413 0.29999999999999716
528.715 0.43329999999999913
529.016 0.43329999999999913
529.318 0.34999999999999787
529.619 0.23329999999999984
529.922 0.3166999999999973
530.224 0.29999999999999716
530.525 0.3166999999999973
530.827 0.23329999999999984
531.128 0.23329999999999984
531.429 0.366699999999998
531.731 0.43329999999999913
532.032 0.43329999999999913
532.336 0.283299999999997
532.637 0.34999999999999787
532.938 0.26670000000000016
533.24 0.26670000000000016
533.541 0.34999999999999787
533.842 0.29999999999999716
534.143 0.283299999999997
534.445 0.3999999999999986
534.746 0.29999999999999716
535.047 0.26670000000000016
535.351 0.25
535.652 0.26670000000000016
535.953 0.3166999999999973
536.254 0.26670000000000016
536.555 0.29999999999999716
536.857 0.283299999999997
537.158 0.34999999999999787
537.459 0.283299999999997
537.76 0.283299999999997
538.061 0.366699999999998
538.362 0.26670000000000016
538.664 0.34999999999999787
538.965 0.34999999999999787
539.266 0.23329999999999984
539.567 0.29999999999999716
539.868 0.14999999999999858
540.169 0.366699999999998
540.472 0.25
540.773 0.34999999999999787
541.074 0.41669999999999874
541.375 0.26670000000000016
541.677 0.4499999999999993
541.978 0.29999999999999716
542.279 0.21669999999999945
542.58 0.3832999999999984
542.881 0.3166999999999973
543.182 0.34999999999999787
543.483 0.25
543.784 0.25
544.085 0.366699999999998
544.385 0.26670000000000016
544.686 0.4499999999999993
544.987 0.25
545.288 0.3999999999999986
545.589 0.3166999999999973
545.89 0.3999999999999986
546.191 0.3166999999999973
546.492 0.3999999999999986
546.793 0.29999999999999716
547.094 0.18329999999999913
547.394 0.3166999999999973
547.695 0.283299999999997
547.996 0.23329999999999984
548.297 0.283299999999997
548.596 0.366699999999998
548.897 0.533299999999997
549.197 0.43329999999999913
549.498 0.3166999999999973
549.799 0.366699999999998
550.1 0.366699999999998
550.4 0.34999999999999787
550.701 0.41669999999999874
551.002 0.3999999999999986
551.303 0.5999999999999979
551.603 0.3999999999999986
551.904 0.366699999999998
552.205 0.41669999999999874
552.505 0.43329999999999913
552.806 0.6666999999999987
553.107 0.41669999999999874
553.407 0.4499999999999993
553.706 0.5666999999999973
554.007 0.48329999999999984
554.307 0.533299999999997
554.608 0.48329999999999984
554.909 0.3832999999999984
555.209 0.5832999999999977
555.51 0.533299999999997
555.81 0.43329999999999913
556.111 0.533299999999997
556.411 0.5
556.71 0.5666999999999973
557.01 0.616699999999998
557.311 0.5167000000000002
557.612 0.4499999999999993
557.912 0.4499999999999993
558.213 0.46669999999999945
558.513 0.34999999999999787
558.813 0.43329999999999913
559.112 0.4499999999999993
559.412 0.3832999999999984
559.713 0.5
560.013 0.5167000000000002
560.314 0.34999999999999787
560.614 0.34999999999999787
560.914 0.5
561.213 0.3332999999999977
561.513 0.26670000000000016
561.814 0.3332999999999977
562.114 0.23329999999999984
562.414 0.41669999999999874
562.715 0.533299999999997
563.015 0.3999999999999986
563.313 0.34999999999999787
563.614 0.366699999999998
563.914 0.3832999999999984
564.214 0.3332999999999977
564.515 0.29999999999999716
564.813 0.4499999999999993
565.113 0.29999999999999716
565.413 0.34999999999999787
565.714 0.3832999999999984
566.014 0.1999999999999993
566.312 0.29999999999999716
566.612 0.23329999999999984
566.912 0.29999999999999716
567.213 0.29999999999999716
567.513 0.3332999999999977
567.811 0.3832999999999984
568.111 0.283299999999997
568.411 0.26670000000000016
568.712 0.34999999999999787
569.012 0.283299999999997
569.31 0.34999999999999787
569.61 0.3332999999999977
569.91 0.3832999999999984
570.21 0.366699999999998
570.508 0.34999999999999787
570.808 0.3332999999999977
571.108 0.25
571.408 0.29999999999999716
571.706 0.3999999999999986
572.006 0.29999999999999716
572.306 0.366699999999998
572.607 0.25
572.904 0.29999999999999716
573.204 0.3332999999999977
573.505 0.26670000000000016
573.805 0.29999999999999716
574.102 0.26670000000000016
574.402 0.21669999999999945
574.702 0.3166999999999973
575.002 0.26670000000000016
575.3 0.3332999999999977
575.6 0.29999999999999716
575.9 0.366699999999998
576.198 0.26670000000000016
576.498 0.25
576.798 0.25
577.098 0.29999999999999716
577.395 0.21669999999999945
577.695 0.1999999999999993
577.995 0.283299999999997
578.293 0.34999999999999787
578.593 0.13329999999999842
578.893 0.23329999999999984
579.19 0.25
579.49 0.29999999999999716
579.79 0.3332999999999977
580.088 0.366699999999998
580.387 0.3832999999999984
580.687 0.34999999999999787
580.985 0.3166999999999973
581.285 0.3166999999999973
581.584 0.23329999999999984
581.882 0.3332999999999977
582.182 0.34999999999999787
582.482 0.46669999999999945
582.779 0.283299999999997
583.079 0.34999999999999787
583.378 0.21669999999999945
583.676 0.16669999999999874
583.976 0.3332999999999977
584.275 0.29999999999999716
584.573 0.3832999999999984
584.873 0.43329999999999913
585.17 0.25
585.47 0.25
585.769 0.41669999999999874
586.067 0.283299999999997
586.367 0.4499999999999993
586.666 0.25
586.964 0.43329999999999913
587.263 0.41669999999999874
587.561 0.18329999999999913
587.86 0.26670000000000016
588.16 0.23329999999999984
588.457 0.3166999999999973
588.757 0.3332999999999977
589.054 0.46669999999999945
589.354 0.3166999999999973
589.653 0.3332999999999977
589.951 0.366699999999998
590.25 0.23329999999999984
590.547 0.26670000000000016
590.847 0.3166999999999973
591.144 0.3166999999999973
591.444 0.3999999999999986
591.743 0.3166999999999973
592.04 0.25
592.34 0.29999999999999716
592.637 0.25
592.936 0.25
593.234 0.25
593.533 0.283299999999997
593.832 0.41669999999999874
594.13 0.13329999999999842
594.429 0.43329999999999913
594.726 0.21669999999999945
595.026 0.46669999999999945
595.323 0.23329999999999984
595.622 0.21669999999999945
595.919 0.29999999999999716
596.219 0.3166999999999973
596.516 0.3166999999999973
596.815 0.3332999999999977
597.112 0.25
597.411 0.34999999999999787
597.709 0.29999999999999716
598.008 0.366699999999998
598.305 0.29999999999999716
598.604 0.25
598.901 0.3166999999999973
599.2 0.29999999999999716
599.497 0.25
599.797 0.21669999999999945
600.094 0.3999999999999986
600.393 0.3332999999999977
600.69 0.23329999999999984
600.989 0.3999999999999986
601.286 0.283299999999997
601.585 0.1999999999999993
601.882 0.34999999999999787
602.181 0.29999999999999716
602.478 0.34999999999999787
602.777 0.25
603.074 0.34999999999999787
603.373 0.34999999999999787
603.67 0.1999999999999993
603.969 0.3332999999999977
604.266 0.21669999999999945
604.563 0.283299999999997
604.862 0.3166999999999973
605.159 0.366699999999998
605.458 0.34999999999999787
605.755 0.283299999999997
606.054 0.3166999999999973
606.351 0.3832999999999984
606.65 0.25
606.946 0.25
607.243 0.366699999999998
607.542 0.29999999999999716
607.839 0.283299999999997
608.138 0.3332999999999977
608.435 0.283299999999997
608.732 0.3166999999999973
609.03 0.3332999999999977
609.327 0.29999999999999716
609.626 0.283299999999997
609.923 0.366699999999998
610.22 0.29999999999999716
610.518 0.25
610.815 0.5167000000000002
611.114 0.5167000000000002
611.411 0.3332999999999977
611.707 0.3332999999999977
612.006 0.34999999999999787
612.303 0.41669999999999874
612.601 0.366699999999998
612.898 0.366699999999998
613.195 0.34999999999999787
613.493 0.34999999999999787
613.79 0.48329999999999984
614.087 0.3999999999999986
614.385 0.3166999999999973
614.682 0.34999999999999787
614.979 0.4499999999999993
615.277 0.43329999999999913
615.574 0.26670000000000016
615.87 0.41669999999999874
616.169 0.25
616.466 0.3832999999999984
616.764 0.3166999999999973
617.061 0.3832999999999984
617.357 0.34999999999999787
617.656 0.34999999999999787
617.952 0.3832999999999984
618.249 0.3166999999999973
618.545 0.283299999999997
618.844 0.3166999999999973
619.14 0.3332999999999977
619.437 0.366699999999998
619.735 0.41669999999999874
620.032 0.34999999999999787
620.328 0.41669999999999874
620.626 0.366699999999998
620.923 0.3332999999999977
621.219 0.26670000000000016
621.518 0.283299999999997
621.814 0.3332999999999977
622.11 0.3166999999999973
622.407 0.26670000000000016
622.705 0.23329999999999984
623.002 0.3832999999999984
623.298 0.26670000000000016
623.594 0.21669999999999945
623.893 0.25
624.189 0.3832999999999984
624.485 0.283299999999997
624.784 0.5167000000000002
625.08 0.34999999999999787
625.376 0.3166999999999973
625.672 0.26670000000000016
625.971 0.283299999999997
626.267 0.18329999999999913
626.563 0.26670000000000016
626.859 0.43329999999999913
627.158 0.283299999999997
627.454 0.3332999999999977
627.75 0.25
628.046 0.3166999999999973
628.342 0.18329999999999913
628.641 0.3166999999999973
628.937 0.34999999999999787
629.233 0.13329999999999842
629.529 0.23329999999999984
629.827 0.283299999999997
630.123 0.21669999999999945
630.419 0.283299999999997
630.715 0.29999999999999716
631.011 0.3332999999999977
631.31 0.3166999999999973
631.606 0.25
631.902 0.41669999999999874
632.198 0.29999999999999716
632.494 0.26670000000000016
632.792 0.23329999999999984
633.088 0.26670000000000016
633.384 0.34999999999999787
633.68 0.3166999999999973
633.976 0.283299999999997
634.272 0.26670000000000016
634.57 0.23329999999999984
634.866 0.366699999999998
635.162 0.29999999999999716
635.458 0.3832999999999984
635.754 0.3166999999999973
636.05 0.29999999999999716
636.347 0.43329999999999913
636.643 0.283299999999997
636.939 0.3999999999999986
637.235 0.29999999999999716
637.531 0.25
637.827 0.283299999999997
638.123 0.366699999999998
638.421 0.29999999999999716
638.716 0.29999999999999716
639.012 0.29999999999999716
639.308 0.3999999999999986
639.604 0.3166999999999973
639.9 0.366699999999998
640.195 0.18329999999999913
640.491 0.3166999999999973
640.789 0.29999999999999716
641.085 0.3332999999999977
641.381 0.3832999999999984
641.676 0.29999999999999716
641.972 0.26670000000000016
642.268 0.366699999999998
642.563 0.26670000000000016
642.859 0.21669999999999945
643.155 0.366699999999998
643.451 0.3166999999999973
643.746 0.283299999999997
644.044 0.23329999999999984
644.34 0.25
644.635 0.23329999999999984
644.931 0.29999999999999716
645.227 0.3166999999999973
645.522 0.29999999999999716
645.818 0.29999999999999716
646.113 0.29999999999999716
646.409 0.1999999999999993
646.704 0.3332999999999977
647.0 0.34999999999999787
647.296 0.4499999999999993
647.591 0.21669999999999945
647.887 0.283299999999997
648.182 0.23329999999999984
648.478 0.3166999999999973
648.773 0.34999999999999787
649.069 0.23329999999999984
649.366 0.3166999999999973
649.662 0.25
649.957 0.3832999999999984
650.253 0.3166999999999973
650.548 0.34999999999999787
650.844 0.48329999999999984
651.139 0.46669999999999945
651.434 0.3332999999999977
651.73 0.43329999999999913
652.025 0.41669999999999874
652.321 0.366699999999998
652.616 0.3166999999999973
652.911 0.34999999999999787
653.207 0.46669999999999945
653.502 0.3332999999999977
653.797 0.3332999999999977
654.093 0.43329999999999913
654.388 0.41669999999999874
654.683 0.34999999999999787
654.979 0.366699999999998
655.274 0.41669999999999874
655.567 0.46669999999999945
655.863 0.3999999999999986
656.158 0.46669999999999945
656.453 0.366699999999998
656.748 0.48329999999999984
657.044 0.48329999999999984
657.339 0.5832999999999977
657.634 0.48329999999999984
657.929 0.41669999999999874
658.224 0.5832999999999977
658.52 0.5
658.815 0.5666999999999973
659.11 0.5167000000000002
659.405 0.43329999999999913
659.7 0.533299999999997
659.995 0.5
660.291 0.6666999999999987
660.586 0.6332999999999984
660.879 0.48329999999999984
661.174 0.6332999999999984
661.469 0.616699999999998
661.764 0.533299999999997
662.059 0.46669999999999945
662.354 0.5999999999999979
662.649 0.6499999999999986
662.944 0.48329999999999984
663.239 0.616699999999998
663.534 0.5167000000000002
663.83 0.41669999999999874
664.122 0.533299999999997
664.417 0.43329999999999913
664.713 0.48329999999999984
665.008 0.43329999999999913
665.302 0.43329999999999913
665.597 0.43329999999999913
665.892 0.46669999999999945
666.187 0.46669999999999945
666.48 0.5
666.775 0.366699999999998
667.07 0.43329999999999913
667.365 0.5666999999999973
667.66 0.46669999999999945
667.955 0.43329999999999913
668.25 0.46669999999999945
668.542 0.283299999999997
668.837 0.3999999999999986
669.132 0.3166999999999973
669.427 0.29999999999999716
669.722 0.3999999999999986
670.017 0.3999999999999986
670.31 0.34999999999999787
670.604 0.3999999999999986
670.899 0.34999999999999787
671.194 0.3999999999999986
671.489 0.34999999999999787
671.783 0.3166999999999973
672.076 0.41669999999999874
672.371 0.3999999999999986
672.666 0.3832999999999984
672.96 0.43329999999999913
673.255 0.3832999999999984
673.548 0.41669999999999874
673.842 0.26670000000000016
674.137 0.3166999999999973
674.432 0.26670000000000016
674.727 0.29999999999999716
675.019 0.366699999999998
675.314 0.29999999999999716
675.608 0.3332999999999977
675.903 0.4499999999999993
676.196 0.23329999999999984
676.49 0.26670000000000016
676.785 0.283299999999997
677.079 0.34999999999999787
677.374 0.366699999999998
677.667 0.283299999999997
677.961 0.366699999999998
678.256 0.283299999999997
678.55 0.25
678.843 0.25
679.137 0.23329999999999984
679.432 0.283299999999997
679.726 0.3166999999999973
680.019 0.34999999999999787
680.313 0.26670000000000016
680.608 0.26670000000000016
680.902 0.3332999999999977
681.195 0.3332999999999977
681.489 0.3999999999999986
681.784 0.283299999999997
682.076 0.3166999999999973
682.37 0.29999999999999716
682.665 0.29999999999999716
682.959 0.3832999999999984
683.252 0.366699999999998
683.546 0.29999999999999716
683.84 0.3832999999999984
684.133 0.366699999999998
684.427 0.21669999999999945
684.721 0.1999999999999993
685.014 0.29999999999999716
685.308 0.366699999999998
685.602 0.26670000000000016
685.895 0.41669999999999874
686.189 0.3166999999999973
686.483 0.26670000000000016
686.778 0.283299999999997
687.07 0.29999999999999716
687.364 0.3332999999999977
687.658 0.23329999999999984
687.951 0.21669999999999945
688.245 0.3166999999999973
688.537 0.25
688.831 0.23329999999999984
689.125 0.3332999999999977
689.418 0.3166999999999973
689.712 0.3332999999999977
690.006 0.25
690.298 0.3999999999999986
690.592 0.1999999999999993
690.886 0.23329999999999984
691.178 0.34999999999999787
691.473 0.34999999999999787
691.767 0.29999999999999716
692.059 0.3166999999999973
692.353 0.18329999999999913
692.645 0.29999999999999716
692.939 0.23329999999999984
693.233 0.34999999999999787
693.525 0.25
693.819 0.25
694.111 0.23329999999999984
694.405 0.13329999999999842
694.699 0.3832999999999984
694.991 0.11669999999999803
695.285 0.283299999999997
695.577 0.25
695.871 0.3166999999999973
696.165 0.3332999999999977
696.457 0.21669999999999945
696.751 0.34999999999999787
697.043 0.26670000000000016
697.337 0.23329999999999984
697.629 0.29999999999999716
697.923 0.21669999999999945
698.217 0.26670000000000016
698.509 0.23329999999999984
698.802 0.26670000000000016
699.094 0.3832999999999984
699.388 0.3332999999999977
699.68 0.34999999999999787
699.974 0.29999999999999716
700.266 0.283299999999997
700.56 0.26670000000000016
700.853 0.283299999999997
701.145 0.29999999999999716
701.439 0.283299999999997
701.731 0.23329999999999984
702.025 0.3332999999999977
702.316 0.34999999999999787
702.61 0.29999999999999716
702.902 0.25
703.196 0.366699999999998
703.487 0.3166999999999973
703.781 0.23329999999999984
704.073 0.4499999999999993
704.367 0.26670000000000016
704.658 0.23329999999999984
704.952 0.29999999999999716
705.244 0.26670000000000016
705.537 0.25
705.829 0.14999999999999858
706.122 0.3166999999999973
706.414 0.41669999999999874
706.708 0.3166999999999973
706.999 0.1999999999999993
707.293 0.3166999999999973
