# Created: 2019-11-28 13:05:43.416661
# rshift intensity
76.1738 0.21669999999999945
76.4989 0.1999999999999993
76.824 0.2834000000000003
77.1491 0.2333999999999996
77.4721 0.09999999999999787
77.7972 0.1833999999999989
78.1223 0.08339999999999748
78.4474 0.25
78.7724 0.16669999999999874
79.0975 0.08339999999999748
79.4204 0.25
79.7454 0.09999999999999787
80.0704 0.1333999999999982
80.3954 0.08339999999999748
80.7204 0.09999999999999787
81.0454 0.04999999999999716
81.3682 0.01670000000000016
81.6931 0.1833999999999989
82.0181 0.11669999999999803
82.343 0.14999999999999858
82.6679 0.08339999999999748
82.9907 0.08339999999999748
83.3156 0.08339999999999748
83.6405 0.06669999999999732
83.9654 0.14999999999999858
84.2903 0.09999999999999787
84.613 0.1333999999999982
84.9378 0.14999999999999858
85.2626 0.11669999999999803
85.5875 0.21669999999999945
85.9101 0.14999999999999858
86.2349 0.11669999999999803
86.5597 0.09999999999999787
86.8845 0.11669999999999803
87.2093 0.04999999999999716
87.5319 0.11669999999999803
87.8566 0.06669999999999732
88.1814 0.08339999999999748
88.5061 0.0
88.8286 0.16669999999999874
89.1533 0.1333999999999982
89.478 0.08339999999999748
89.8027 0.09999999999999787
90.1252 0.04999999999999716
90.4499 0.2333999999999996
90.7745 0.1333999999999982
91.0992 0.03340000000000032
91.4216 0.11669999999999803
91.7462 0.08339999999999748
92.0708 0.11669999999999803
92.3954 0.1833999999999989
92.7179 0.11669999999999803
93.0424 0.06669999999999732
93.367 0.08339999999999748
93.6915 0.1333999999999982
94.0139 0.08339999999999748
94.3384 0.04999999999999716
94.6629 0.09999999999999787
94.9853 0.09999999999999787
95.3098 0.11669999999999803
95.6342 0.08339999999999748
95.9587 0.09999999999999787
96.281 0.14999999999999858
96.6055 0.09999999999999787
96.9299 0.11669999999999803
97.2522 0.16669999999999874
97.5766 0.11669999999999803
97.901 0.1833999999999989
98.2232 0.04999999999999716
98.5476 0.11669999999999803
98.8719 0.16669999999999874
99.1942 0.11669999999999803
99.5185 0.11669999999999803
99.8428 0.09999999999999787
100.165 0.09999999999999787
100.489 0.04999999999999716
100.814 0.25
101.136 0.1999999999999993
101.46 0.14999999999999858
101.784 0.11669999999999803
102.106 0.1333999999999982
102.431 0.1833999999999989
102.755 0.1833999999999989
103.077 0.1999999999999993
103.401 0.09999999999999787
103.725 0.2333999999999996
104.047 0.1333999999999982
104.372 0.09999999999999787
104.696 0.1833999999999989
105.018 0.1833999999999989
105.342 0.1833999999999989
105.666 0.21669999999999945
105.988 0.2333999999999996
106.312 0.1999999999999993
106.634 0.25
106.958 0.1999999999999993
107.282 0.1999999999999993
107.604 0.08339999999999748
107.928 0.1833999999999989
108.252 0.21669999999999945
108.574 0.1999999999999993
108.898 0.1999999999999993
109.22 0.1333999999999982
109.544 0.14999999999999858
109.868 0.1333999999999982
110.19 0.04999999999999716
110.514 0.16669999999999874
110.836 0.06669999999999732
111.159 0.1833999999999989
111.483 0.11669999999999803
111.805 0.11669999999999803
112.129 0.14999999999999858
112.451 0.09999999999999787
112.775 0.1833999999999989
113.096 0.11669999999999803
113.42 0.08339999999999748
113.744 0.1999999999999993
114.066 0.01670000000000016
114.39 0.14999999999999858
114.711 0.16669999999999874
115.035 0.1333999999999982
115.357 0.11669999999999803
115.681 0.21669999999999945
116.004 0.16669999999999874
116.326 0.21669999999999945
116.65 0.11669999999999803
116.971 0.09999999999999787
117.295 0.11669999999999803
117.617 0.2333999999999996
117.94 0.16669999999999874
118.262 0.09999999999999787
118.586 0.1833999999999989
118.907 0.11669999999999803
119.231 0.1833999999999989
119.554 0.14999999999999858
119.876 0.16669999999999874
120.199 0.1333999999999982
120.521 0.09999999999999787
120.845 0.14999999999999858
121.166 0.1333999999999982
121.49 0.16669999999999874
121.811 0.14999999999999858
122.135 0.1833999999999989
122.456 0.21669999999999945
122.78 0.16669999999999874
123.101 0.25
123.424 0.14999999999999858
123.746 0.03340000000000032
124.069 0.04999999999999716
124.391 0.16669999999999874
124.714 0.16669999999999874
125.035 0.16669999999999874
125.359 0.06669999999999732
125.68 0.06669999999999732
126.004 0.01670000000000016
126.325 0.11669999999999803
126.648 0.1999999999999993
126.97 0.1333999999999982
127.291 0.09999999999999787
127.614 0.25
127.935 0.11669999999999803
128.259 0.1999999999999993
128.58 0.06669999999999732
128.903 0.16669999999999874
129.224 0.09999999999999787
129.548 0.08339999999999748
129.869 0.16669999999999874
130.192 0.14999999999999858
130.513 0.2834000000000003
130.834 0.1333999999999982
131.158 0.16669999999999874
131.479 0.1833999999999989
131.802 0.1999999999999993
132.123 0.1999999999999993
132.446 0.16669999999999874
132.767 0.1333999999999982
133.09 0.26670000000000016
133.411 0.21669999999999945
133.733 0.1833999999999989
134.056 0.16669999999999874
134.377 0.16669999999999874
134.7 0.09999999999999787
135.021 0.08339999999999748
135.342 0.1833999999999989
135.665 0.16669999999999874
135.986 0.1833999999999989
136.309 0.09999999999999787
136.63 0.14999999999999858
136.951 0.14999999999999858
137.274 0.06669999999999732
137.595 0.11669999999999803
137.918 0.09999999999999787
138.238 0.1833999999999989
138.559 0.2333999999999996
138.882 0.14999999999999858
139.203 0.08339999999999748
139.526 0.1833999999999989
139.847 0.08339999999999748
140.168 0.1833999999999989
140.491 0.16669999999999874
140.811 0.16669999999999874
141.132 0.14999999999999858
141.455 0.16669999999999874
141.776 0.11669999999999803
142.097 0.1999999999999993
142.419 0.1833999999999989
142.74 0.1833999999999989
143.061 0.16669999999999874
143.384 0.1833999999999989
143.704 0.1999999999999993
144.027 0.1333999999999982
144.348 0.16669999999999874
144.668 0.25
144.991 0.1833999999999989
145.312 0.1333999999999982
145.632 0.26670000000000016
145.955 0.16669999999999874
146.276 0.09999999999999787
146.596 0.11669999999999803
146.917 0.1333999999999982
147.24 0.08339999999999748
147.56 0.1333999999999982
147.881 0.1333999999999982
148.203 0.16669999999999874
148.524 0.08339999999999748
148.844 0.1833999999999989
149.167 0.14999999999999858
149.487 0.16669999999999874
149.808 0.26670000000000016
150.131 0.16669999999999874
150.451 0.09999999999999787
150.771 0.09999999999999787
151.092 0.25
151.414 0.14999999999999858
151.735 0.21669999999999945
152.055 0.04999999999999716
152.378 0.09999999999999787
152.698 0.14999999999999858
153.018 0.1333999999999982
153.339 0.1333999999999982
153.661 0.11669999999999803
153.982 0.09999999999999787
154.302 0.2834000000000003
154.622 0.14999999999999858
154.945 0.14999999999999858
155.265 0.1333999999999982
155.585 0.11669999999999803
155.905 0.21669999999999945
156.228 0.08339999999999748
156.548 0.21669999999999945
156.868 0.09999999999999787
157.188 0.06669999999999732
157.511 0.1999999999999993
157.831 0.11669999999999803
158.151 0.14999999999999858
158.471 0.1333999999999982
158.794 0.16669999999999874
159.114 0.14999999999999858
159.434 0.2834000000000003
159.754 0.25
160.074 0.09999999999999787
160.396 0.2333999999999996
160.717 0.2333999999999996
161.037 0.14999999999999858
161.357 0.21669999999999945
161.679 0.16669999999999874
161.999 0.11669999999999803
162.319 0.2333999999999996
162.639 0.11669999999999803
162.959 0.09999999999999787
163.281 0.1333999999999982
163.601 0.21669999999999945
163.921 0.16669999999999874
164.241 0.1333999999999982
164.561 0.11669999999999803
164.881 0.26670000000000016
165.203 0.09999999999999787
165.523 0.1833999999999989
165.843 0.04999999999999716
166.163 0.16669999999999874
166.483 0.1833999999999989
166.803 0.21669999999999945
167.125 0.1999999999999993
167.445 0.08339999999999748
167.764 0.1833999999999989
168.084 0.1999999999999993
168.404 0.09999999999999787
168.724 0.09999999999999787
169.046 0.1833999999999989
169.366 0.25
169.685 0.16669999999999874
170.005 0.1833999999999989
170.325 0.14999999999999858
170.645 0.1833999999999989
170.964 0.1833999999999989
171.286 0.21669999999999945
171.606 0.16669999999999874
171.926 0.14999999999999858
172.245 0.21669999999999945
172.565 0.2333999999999996
172.885 0.21669999999999945
173.204 0.1999999999999993
173.524 0.16669999999999874
173.846 0.11669999999999803
174.166 0.3333999999999975
174.485 0.14999999999999858
174.805 0.2834000000000003
175.124 0.14999999999999858
175.444 0.1833999999999989
175.764 0.1333999999999982
176.083 0.1833999999999989
176.403 0.14999999999999858
176.722 0.1333999999999982
177.044 0.21669999999999945
177.363 0.14999999999999858
177.683 0.14999999999999858
178.002 0.1999999999999993
178.322 0.1833999999999989
178.641 0.25
178.961 0.29999999999999716
179.28 0.1999999999999993
179.6 0.25
179.919 0.1333999999999982
180.239 0.08339999999999748
180.558 0.09999999999999787
180.877 0.04999999999999716
181.197 0.11669999999999803
181.516 0.1833999999999989
181.838 0.1999999999999993
182.157 0.1999999999999993
182.476 0.21669999999999945
182.796 0.09999999999999787
183.115 0.08339999999999748
183.434 0.11669999999999803
183.754 0.2834000000000003
184.073 0.08339999999999748
184.392 0.1999999999999993
184.712 0.16669999999999874
185.031 0.1333999999999982
185.35 0.2333999999999996
185.669 0.16669999999999874
185.989 0.1999999999999993
186.308 0.16669999999999874
186.627 0.03340000000000032
186.946 0.1999999999999993
187.265 0.1333999999999982
187.585 0.11669999999999803
187.904 0.08339999999999748
188.223 0.14999999999999858
188.542 0.21669999999999945
188.861 0.01670000000000016
189.18 0.2333999999999996
189.499 0.1999999999999993
189.818 0.1999999999999993
190.138 0.1333999999999982
190.457 0.08339999999999748
190.776 0.2834000000000003
191.095 0.21669999999999945
191.414 0.14999999999999858
191.733 0.16669999999999874
192.052 0.14999999999999858
192.371 0.1333999999999982
192.69 0.1333999999999982
193.009 0.2333999999999996
193.328 0.1833999999999989
193.647 0.11669999999999803
193.966 0.14999999999999858
194.285 0.16669999999999874
194.602 0.11669999999999803
194.92 0.16669999999999874
195.239 0.11669999999999803
195.558 0.21669999999999945
195.877 0.1833999999999989
196.196 0.25
196.515 0.21669999999999945
196.834 0.16669999999999874
197.153 0.1333999999999982
197.471 0.21669999999999945
197.79 0.16669999999999874
198.109 0.1333999999999982
198.428 0.2333999999999996
198.747 0.08339999999999748
199.065 0.1999999999999993
199.382 0.1833999999999989
199.701 0.1333999999999982
200.02 0.14999999999999858
200.338 0.25
200.657 0.1999999999999993
200.976 0.1333999999999982
201.295 0.1833999999999989
201.613 0.1333999999999982
201.932 0.16669999999999874
202.251 0.21669999999999945
202.567 0.16669999999999874
202.886 0.25
203.204 0.11669999999999803
203.523 0.2333999999999996
203.842 0.1833999999999989
204.16 0.14999999999999858
204.479 0.14999999999999858
204.797 0.1833999999999989
205.114 0.25
205.433 0.2333999999999996
205.751 0.2333999999999996
206.07 0.11669999999999803
206.388 0.16669999999999874
206.707 0.2333999999999996
207.025 0.14999999999999858
207.342 0.3166999999999973
207.66 0.1999999999999993
207.979 0.14999999999999858
208.297 0.26670000000000016
208.615 0.26670000000000016
208.934 0.16669999999999874
209.25 0.04999999999999716
209.569 0.2834000000000003
209.887 0.25
210.205 0.1833999999999989
210.524 0.16669999999999874
210.842 0.14999999999999858
211.158 0.2333999999999996
211.477 0.25
211.795 0.1833999999999989
212.113 0.29999999999999716
212.432 0.1999999999999993
212.75 0.1999999999999993
213.066 0.1833999999999989
213.385 0.1333999999999982
213.703 0.25
214.021 0.21669999999999945
214.339 0.1833999999999989
214.656 0.26670000000000016
214.974 0.1833999999999989
215.292 0.1999999999999993
215.61 0.09999999999999787
215.926 0.26670000000000016
216.245 0.21669999999999945
216.563 0.3166999999999973
216.881 0.34999999999999787
217.199 0.1999999999999993
217.515 0.26670000000000016
217.833 0.1999999999999993
218.151 0.11669999999999803
218.469 0.14999999999999858
218.785 0.1999999999999993
219.104 0.1999999999999993
219.422 0.1999999999999993
219.74 0.2834000000000003
220.056 0.29999999999999716
220.374 0.1999999999999993
220.692 0.1999999999999993
221.01 0.1999999999999993
221.326 0.1999999999999993
221.644 0.1833999999999989
221.962 0.14999999999999858
222.28 0.29999999999999716
222.596 0.34999999999999787
222.914 0.21669999999999945
223.232 0.1833999999999989
223.547 0.16669999999999874
223.865 0.25
224.183 0.16669999999999874
224.501 0.1333999999999982
224.817 0.14999999999999858
225.135 0.14999999999999858
225.453 0.2834000000000003
225.768 0.1833999999999989
226.086 0.25
226.404 0.16669999999999874
226.722 0.1833999999999989
227.038 0.3166999999999973
227.355 0.16669999999999874
227.673 0.29999999999999716
227.989 0.2834000000000003
228.307 0.1833999999999989
228.625 0.25
228.94 0.21669999999999945
229.258 0.1999999999999993
229.576 0.3166999999999973
229.891 0.2333999999999996
230.209 0.21669999999999945
230.527 0.16669999999999874
230.842 0.1999999999999993
231.16 0.3333999999999975
231.478 0.1833999999999989
231.793 0.2834000000000003
232.111 0.25
232.428 0.21669999999999945
232.744 0.26670000000000016
233.062 0.3333999999999975
233.379 0.1833999999999989
233.695 0.2333999999999996
234.012 0.25
234.33 0.21669999999999945
234.645 0.1999999999999993
234.963 0.2333999999999996
235.278 0.1333999999999982
235.596 0.26670000000000016
235.913 0.25
236.229 0.1999999999999993
236.546 0.25
236.864 0.14999999999999858
237.179 0.1333999999999982
237.497 0.1999999999999993
237.812 0.1833999999999989
238.129 0.1833999999999989
238.447 0.2333999999999996
238.762 0.26670000000000016
239.08 0.1833999999999989
239.395 0.21669999999999945
239.712 0.25
240.03 0.09999999999999787
240.345 0.25
240.662 0.25
240.978 0.26670000000000016
241.295 0.1833999999999989
241.61 0.1999999999999993
241.927 0.25
242.245 0.29999999999999716
242.56 0.3166999999999973
242.877 0.16669999999999874
243.192 0.3333999999999975
243.51 0.3166999999999973
243.825 0.34999999999999787
244.142 0.26670000000000016
244.459 0.29999999999999716
244.774 0.14999999999999858
245.092 0.2834000000000003
245.407 0.1999999999999993
245.724 0.26670000000000016
246.039 0.1833999999999989
246.356 0.26670000000000016
246.671 0.16669999999999874
246.988 0.1999999999999993
247.303 0.26670000000000016
247.62 0.1999999999999993
247.938 0.21669999999999945
248.253 0.1833999999999989
248.57 0.29999999999999716
248.885 0.2834000000000003
249.202 0.14999999999999858
249.517 0.14999999999999858
249.834 0.2834000000000003
250.149 0.2333999999999996
250.466 0.26670000000000016
250.781 0.1833999999999989
251.098 0.2333999999999996
251.412 0.3166999999999973
251.729 0.16669999999999874
252.044 0.1833999999999989
252.361 0.1833999999999989
252.676 0.1999999999999993
252.993 0.21669999999999945
253.308 0.29999999999999716
253.625 0.2834000000000003
253.94 0.1333999999999982
254.256 0.3333999999999975
254.571 0.3833999999999982
254.888 0.16669999999999874
255.203 0.1833999999999989
255.518 0.16669999999999874
255.834 0.26670000000000016
256.149 0.2333999999999996
256.466 0.25
256.781 0.26670000000000016
257.097 0.1833999999999989
257.412 0.25
257.729 0.29999999999999716
258.044 0.21669999999999945
258.36 0.1833999999999989
258.675 0.11669999999999803
258.99 0.26670000000000016
259.306 0.29999999999999716
259.621 0.21669999999999945
259.938 0.1999999999999993
260.252 0.16669999999999874
260.569 0.1999999999999993
260.883 0.2333999999999996
261.198 0.2834000000000003
261.515 0.21669999999999945
261.829 0.25
262.146 0.2834000000000003
262.46 0.14999999999999858
262.775 0.2834000000000003
263.091 0.1999999999999993
263.406 0.29999999999999716
263.723 0.2333999999999996
264.037 0.1833999999999989
264.354 0.2333999999999996
264.668 0.2333999999999996
264.982 0.1999999999999993
265.299 0.3166999999999973
265.613 0.2333999999999996
265.928 0.26670000000000016
266.244 0.25
266.559 0.21669999999999945
266.875 0.1999999999999993
267.189 0.2834000000000003
267.504 0.29999999999999716
267.82 0.2333999999999996
268.134 0.21669999999999945
268.449 0.3333999999999975
268.765 0.1333999999999982
269.079 0.21669999999999945
269.394 0.3166999999999973
269.71 0.1999999999999993
270.024 0.2333999999999996
270.341 0.2333999999999996
270.655 0.26670000000000016
270.969 0.14999999999999858
271.286 0.1999999999999993
271.6 0.26670000000000016
271.914 0.1833999999999989
272.23 0.26670000000000016
272.544 0.21669999999999945
272.859 0.16669999999999874
273.175 0.2834000000000003
273.489 0.1833999999999989
273.803 0.25
274.119 0.26670000000000016
274.433 0.14999999999999858
274.747 0.3333999999999975
275.062 0.1999999999999993
275.378 0.1833999999999989
275.692 0.1833999999999989
276.006 0.16669999999999874
276.322 0.16669999999999874
276.636 0.1999999999999993
276.95 0.25
277.266 0.1833999999999989
277.58 0.1833999999999989
277.894 0.16669999999999874
278.208 0.2834000000000003
278.524 0.25
278.838 0.1999999999999993
279.152 0.25
279.468 0.1999999999999993
279.782 0.21669999999999945
280.096 0.1999999999999993
280.41 0.08339999999999748
280.726 0.2333999999999996
281.04 0.1999999999999993
281.354 0.14999999999999858
281.668 0.26670000000000016
281.983 0.25
282.297 0.2333999999999996
282.611 0.1833999999999989
282.925 0.3166999999999973
283.241 0.21669999999999945
283.555 0.09999999999999787
283.868 0.2333999999999996
284.182 0.1999999999999993
284.498 0.1833999999999989
284.812 0.21669999999999945
285.126 0.1833999999999989
285.439 0.2834000000000003
285.753 0.26670000000000016
286.069 0.1833999999999989
286.383 0.3166999999999973
286.696 0.2834000000000003
287.01 0.3166999999999973
287.326 0.14999999999999858
287.639 0.16669999999999874
287.953 0.2834000000000003
288.267 0.1999999999999993
288.58 0.3333999999999975
288.896 0.25
289.21 0.2834000000000003
289.523 0.1999999999999993
289.837 0.3333999999999975
290.15 0.25
290.466 0.26670000000000016
290.78 0.16669999999999874
291.093 0.25
291.407 0.1333999999999982
291.72 0.29999999999999716
292.034 0.1333999999999982
292.349 0.11669999999999803
292.663 0.16669999999999874
292.976 0.21669999999999945
293.29 0.2834000000000003
293.603 0.2333999999999996
293.917 0.16669999999999874
294.232 0.2834000000000003
294.546 0.21669999999999945
294.859 0.34999999999999787
295.172 0.1333999999999982
295.486 0.16669999999999874
295.799 0.21669999999999945
296.113 0.25
296.428 0.29999999999999716
296.741 0.16669999999999874
297.055 0.2834000000000003
297.368 0.16669999999999874
297.681 0.14999999999999858
297.995 0.1833999999999989
298.308 0.2333999999999996
298.621 0.21669999999999945
298.937 0.1333999999999982
299.25 0.25
299.563 0.29999999999999716
299.876 0.1999999999999993
300.19 0.26670000000000016
300.503 0.3166999999999973
300.816 0.1999999999999993
301.129 0.21669999999999945
301.442 0.29999999999999716
301.756 0.21669999999999945
302.071 0.2333999999999996
302.384 0.26670000000000016
302.697 0.2834000000000003
303.01 0.2834000000000003
303.323 0.1999999999999993
303.637 0.3166999999999973
303.95 0.1999999999999993
304.263 0.26670000000000016
304.576 0.3333999999999975
304.889 0.26670000000000016
305.202 0.16669999999999874
305.515 0.1999999999999993
305.828 0.14999999999999858
306.141 0.16669999999999874
306.456 0.1833999999999989
306.769 0.25
307.082 0.29999999999999716
307.395 0.21669999999999945
307.708 0.25
308.021 0.25
308.334 0.25
308.647 0.3166999999999973
308.96 0.1999999999999993
309.273 0.2333999999999996
309.586 0.2333999999999996
309.899 0.26670000000000016
310.212 0.16669999999999874
310.525 0.1833999999999989
310.838 0.26670000000000016
311.15 0.3333999999999975
311.463 0.1833999999999989
311.776 0.3166999999999973
312.089 0.16669999999999874
312.402 0.21669999999999945
312.715 0.21669999999999945
313.027 0.16669999999999874
313.34 0.25
313.653 0.1333999999999982
313.966 0.26670000000000016
314.278 0.1833999999999989
314.591 0.2834000000000003
314.904 0.26670000000000016
315.217 0.25
315.529 0.16669999999999874
315.842 0.21669999999999945
316.155 0.14999999999999858
316.467 0.16669999999999874
316.78 0.25
317.093 0.25
317.405 0.29999999999999716
317.718 0.21669999999999945
318.031 0.2834000000000003
318.343 0.25
318.656 0.3166999999999973
318.969 0.25
319.281 0.3833999999999982
319.592 0.25
319.904 0.2333999999999996
320.217 0.29999999999999716
320.529 0.2834000000000003
320.842 0.2333999999999996
321.154 0.3333999999999975
321.467 0.16669999999999874
321.779 0.3333999999999975
322.092 0.3166999999999973
322.404 0.2834000000000003
322.717 0.2834000000000003
323.029 0.2333999999999996
323.342 0.29999999999999716
323.654 0.21669999999999945
323.965 0.1999999999999993
324.277 0.34999999999999787
324.589 0.1999999999999993
324.902 0.25
325.214 0.2834000000000003
325.527 0.3166999999999973
325.839 0.2834000000000003
326.151 0.26670000000000016
326.464 0.41669999999999874
326.776 0.34999999999999787
327.086 0.3333999999999975
327.399 0.2834000000000003
327.711 0.2333999999999996
328.023 0.3166999999999973
328.335 0.16669999999999874
328.648 0.29999999999999716
328.96 0.3333999999999975
329.27 0.25
329.582 0.3333999999999975
329.895 0.366699999999998
330.207 0.41669999999999874
330.519 0.3333999999999975
330.831 0.25
331.143 0.4499999999999993
331.454 0.29999999999999716
331.766 0.2834000000000003
332.078 0.29999999999999716
332.39 0.1999999999999993
332.702 0.3333999999999975
333.014 0.366699999999998
333.326 0.366699999999998
333.636 0.21669999999999945
333.948 0.366699999999998
334.261 0.2834000000000003
334.573 0.3999999999999986
334.885 0.2333999999999996
335.195 0.21669999999999945
335.507 0.3166999999999973
335.819 0.366699999999998
336.131 0.366699999999998
336.443 0.46669999999999945
336.753 0.16669999999999874
337.065 0.34999999999999787
337.377 0.16669999999999874
337.689 0.26670000000000016
338.001 0.3333999999999975
338.31 0.1999999999999993
338.622 0.3166999999999973
338.934 0.26670000000000016
339.246 0.3166999999999973
339.558 0.29999999999999716
339.868 0.1999999999999993
340.18 0.26670000000000016
340.492 0.34999999999999787
340.804 0.16669999999999874
341.113 0.26670000000000016
341.425 0.29999999999999716
341.737 0.34999999999999787
342.049 0.29999999999999716
342.361 0.34999999999999787
342.67 0.21669999999999945
342.982 0.3166999999999973
343.294 0.21669999999999945
343.606 0.3166999999999973
343.915 0.26670000000000016
344.227 0.3333999999999975
344.539 0.21669999999999945
344.849 0.2834000000000003
345.16 0.366699999999998
345.472 0.2834000000000003
345.784 0.29999999999999716
346.093 0.34999999999999787
346.405 0.25
346.717 0.3333999999999975
347.028 0.21669999999999945
347.338 0.2834000000000003
347.649 0.3166999999999973
347.961 0.2834000000000003
348.271 0.4333999999999989
348.582 0.26670000000000016
348.894 0.3333999999999975
349.205 0.26670000000000016
349.515 0.3166999999999973
349.826 0.3166999999999973
350.138 0.4333999999999989
350.447 0.41669999999999874
350.759 0.29999999999999716
351.07 0.366699999999998
351.38 0.2333999999999996
351.691 0.26670000000000016
352.003 0.26670000000000016
352.312 0.29999999999999716
352.624 0.2834000000000003
352.935 0.41669999999999874
353.245 0.366699999999998
353.556 0.46669999999999945
353.867 0.3166999999999973
354.177 0.26670000000000016
354.488 0.21669999999999945
354.799 0.3166999999999973
355.109 0.26670000000000016
355.42 0.25
355.732 0.29999999999999716
356.041 0.2834000000000003
356.352 0.26670000000000016
356.663 0.366699999999998
356.973 0.3333999999999975
357.284 0.3333999999999975
357.593 0.29999999999999716
357.905 0.25
358.216 0.2834000000000003
358.525 0.34999999999999787
358.836 0.366699999999998
359.147 0.3333999999999975
359.457 0.2834000000000003
359.768 0.3999999999999986
360.077 0.2333999999999996
360.388 0.3333999999999975
360.699 0.29999999999999716
361.008 0.2333999999999996
361.32 0.29999999999999716
361.629 0.25
361.94 0.3166999999999973
362.251 0.4333999999999989
362.56 0.1833999999999989
362.871 0.2834000000000003
363.18 0.25
363.491 0.26670000000000016
363.8 0.3166999999999973
364.111 0.26670000000000016
364.422 0.3166999999999973
364.731 0.25
365.042 0.2834000000000003
365.351 0.3166999999999973
365.662 0.3833999999999982
365.971 0.1833999999999989
366.282 0.3166999999999973
366.593 0.2834000000000003
366.902 0.34999999999999787
367.213 0.34999999999999787
367.522 0.29999999999999716
367.833 0.25
368.142 0.25
368.453 0.26670000000000016
368.762 0.26670000000000016
369.073 0.29999999999999716
369.381 0.25
369.692 0.366699999999998
370.001 0.29999999999999716
370.312 0.3333999999999975
370.623 0.21669999999999945
370.932 0.3166999999999973
371.242 0.4333999999999989
371.551 0.3166999999999973
371.862 0.3333999999999975
372.171 0.26670000000000016
372.482 0.1999999999999993
372.79 0.25
373.101 0.3333999999999975
373.41 0.26670000000000016
373.721 0.2834000000000003
374.029 0.366699999999998
374.34 0.2834000000000003
374.649 0.16669999999999874
374.959 0.21669999999999945
375.268 0.16669999999999874
375.577 0.25
375.887 0.21669999999999945
376.196 0.2834000000000003
376.506 0.29999999999999716
376.815 0.21669999999999945
377.126 0.366699999999998
377.434 0.3166999999999973
377.745 0.3166999999999973
378.053 0.3833999999999982
378.364 0.25
378.672 0.2834000000000003
378.983 0.34999999999999787
379.292 0.26670000000000016
379.6 0.26670000000000016
379.911 0.25
380.219 0.366699999999998
380.53 0.41669999999999874
380.838 0.26670000000000016
381.148 0.29999999999999716
381.457 0.29999999999999716
381.767 0.1999999999999993
382.076 0.2834000000000003
382.384 0.25
382.695 0.3166999999999973
383.003 0.25
383.313 0.29999999999999716
383.622 0.2333999999999996
383.93 0.2834000000000003
384.24 0.3166999999999973
384.549 0.25
384.859 0.29999999999999716
385.167 0.34999999999999787
385.476 0.2834000000000003
385.786 0.25
386.094 0.16669999999999874
386.405 0.2834000000000003
386.713 0.3333999999999975
387.021 0.25
387.331 0.3333999999999975
387.64 0.11669999999999803
387.948 0.29999999999999716
388.258 0.3166999999999973
388.566 0.3166999999999973
388.877 0.2834000000000003
389.185 0.41669999999999874
389.493 0.366699999999998
389.803 0.26670000000000016
390.111 0.3166999999999973
390.419 0.3166999999999973
390.729 0.29999999999999716
391.038 0.34999999999999787
391.346 0.3333999999999975
391.656 0.3333999999999975
391.964 0.34999999999999787
392.272 0.3166999999999973
392.582 0.3333999999999975
392.89 0.4499999999999993
393.198 0.26670000000000016
393.508 0.26670000000000016
393.816 0.3166999999999973
394.124 0.25
394.434 0.41669999999999874
394.742 0.21669999999999945
395.05 0.21669999999999945
395.36 0.25
395.668 0.3333999999999975
395.976 0.34999999999999787
396.286 0.26670000000000016
396.594 0.3333999999999975
396.902 0.3333999999999975
397.21 0.1999999999999993
397.52 0.3833999999999982
397.828 0.3166999999999973
398.135 0.1999999999999993
398.445 0.29999999999999716
398.753 0.366699999999998
399.061 0.3166999999999973
399.369 0.34999999999999787
399.679 0.1999999999999993
399.987 0.2834000000000003
400.294 0.3333999999999975
400.604 0.3333999999999975
400.912 0.34999999999999787
401.22 0.366699999999998
401.527 0.3833999999999982
401.837 0.366699999999998
402.145 0.26670000000000016
402.453 0.41669999999999874
402.76 0.34999999999999787
403.07 0.25
403.378 0.366699999999998
403.686 0.3333999999999975
403.993 0.3333999999999975
404.303 0.4499999999999993
404.611 0.4499999999999993
404.918 0.4499999999999993
405.226 0.34999999999999787
405.533 0.2834000000000003
405.843 0.4499999999999993
406.151 0.3333999999999975
406.458 0.29999999999999716
406.766 0.1999999999999993
407.076 0.46669999999999945
407.383 0.366699999999998
407.691 0.3166999999999973
407.998 0.29999999999999716
408.306 0.3166999999999973
408.615 0.4833999999999996
408.923 0.5
409.23 0.366699999999998
409.538 0.2834000000000003
409.845 0.4833999999999996
410.153 0.3333999999999975
410.462 0.3999999999999986
410.77 0.616699999999998
411.077 0.3333999999999975
411.384 0.3166999999999973
411.692 0.3833999999999982
412.001 0.4499999999999993
412.309 0.5833999999999975
412.616 0.4333999999999989
412.923 0.3999999999999986
413.231 0.41669999999999874
413.538 0.3833999999999982
413.845 0.46669999999999945
414.155 0.5167000000000002
414.462 0.4833999999999996
414.769 0.5167000000000002
415.077 0.41669999999999874
415.384 0.4333999999999989
415.691 0.5
415.999 0.41669999999999874
416.308 0.6833999999999989
416.615 0.6499999999999986
416.922 0.5
417.23 0.6499999999999986
417.537 0.5
417.844 0.5833999999999975
418.151 0.5666999999999973
418.458 0.6833999999999989
418.768 0.5999999999999979
419.075 0.6833999999999989
419.382 0.5999999999999979
419.689 0.8499999999999979
419.996 0.866699999999998
420.303 0.7999999999999972
420.61 0.9166999999999987
420.918 0.9666999999999994
421.225 0.9833999999999996
421.532 0.9666999999999994
421.841 0.8833999999999982
422.148 0.9333999999999989
422.455 1.1666999999999987
422.762 1.3833999999999982
423.069 1.0167000000000002
423.376 1.2834000000000003
423.683 1.3833999999999982
423.99 1.0334000000000003
424.297 1.2333999999999996
424.604 1.183399999999999
424.911 1.3999999999999986
425.218 1.1666999999999987
425.525 1.433399999999999
425.832 1.1666999999999987
426.139 1.5499999999999972
426.446 1.1499999999999986
426.753 1.1999999999999993
427.061 1.433399999999999
427.368 1.3499999999999979
427.675 1.1999999999999993
427.982 1.0999999999999979
428.289 1.0666999999999973
428.596 0.9166999999999987
428.903 1.1333999999999982
429.209 1.116699999999998
429.516 0.9333999999999989
429.823 0.9499999999999993
430.13 1.0
430.437 0.7667000000000002
430.743 0.9499999999999993
431.05 0.7166999999999994
431.357 0.7667000000000002
431.664 0.7999999999999972
431.97 0.7999999999999972
432.277 0.6999999999999993
432.584 0.6833999999999989
432.891 0.7667000000000002
433.197 0.6333999999999982
433.504 0.6666999999999987
433.811 0.7834000000000003
434.117 0.5334000000000003
434.424 0.6333999999999982
434.731 0.616699999999998
435.037 0.3999999999999986
435.344 0.5999999999999979
435.65 0.46669999999999945
435.957 0.5833999999999975
436.262 0.46669999999999945
436.568 0.5999999999999979
436.875 0.5833999999999975
437.181 0.3166999999999973
437.488 0.5334000000000003
437.794 0.46669999999999945
438.101 0.5
438.407 0.4499999999999993
438.714 0.4333999999999989
439.02 0.4833999999999996
439.327 0.2834000000000003
439.633 0.366699999999998
439.94 0.4499999999999993
440.246 0.3333999999999975
440.553 0.3833999999999982
440.859 0.366699999999998
441.163 0.3333999999999975
441.47 0.41669999999999874
441.776 0.3833999999999982
442.083 0.4499999999999993
442.389 0.29999999999999716
442.695 0.3833999999999982
443.002 0.4333999999999989
443.308 0.366699999999998
443.614 0.29999999999999716
443.921 0.366699999999998
444.225 0.5334000000000003
444.531 0.366699999999998
444.838 0.366699999999998
445.144 0.4333999999999989
445.45 0.3999999999999986
445.757 0.4499999999999993
446.063 0.366699999999998
446.369 0.3999999999999986
446.675 0.3333999999999975
446.979 0.3833999999999982
447.286 0.29999999999999716
447.592 0.4499999999999993
447.898 0.3999999999999986
448.204 0.41669999999999874
448.51 0.4499999999999993
448.817 0.46669999999999945
449.121 0.3999999999999986
449.427 0.41669999999999874
449.733 0.4499999999999993
450.039 0.3333999999999975
450.345 0.29999999999999716
450.651 0.3833999999999982
450.955 0.366699999999998
451.261 0.41669999999999874
451.568 0.41669999999999874
451.874 0.34999999999999787
452.18 0.34999999999999787
452.486 0.46669999999999945
452.79 0.4333999999999989
453.096 0.25
453.402 0.46669999999999945
453.708 0.3999999999999986
454.014 0.34999999999999787
454.318 0.3833999999999982
454.624 0.3166999999999973
454.93 0.366699999999998
455.236 0.4333999999999989
455.541 0.366699999999998
455.845 0.3833999999999982
456.151 0.3166999999999973
456.457 0.3166999999999973
456.763 0.3833999999999982
457.067 0.4333999999999989
457.373 0.3333999999999975
457.679 0.366699999999998
457.985 0.29999999999999716
458.29 0.3166999999999973
458.594 0.3166999999999973
458.9 0.4333999999999989
459.206 0.3333999999999975
459.512 0.41669999999999874
459.815 0.3333999999999975
460.121 0.4833999999999996
460.427 0.41669999999999874
460.733 0.34999999999999787
461.036 0.3833999999999982
461.342 0.366699999999998
461.648 0.3999999999999986
461.954 0.1833999999999989
462.257 0.26670000000000016
462.563 0.34999999999999787
462.869 0.3166999999999973
463.172 0.34999999999999787
463.478 0.3999999999999986
463.784 0.25
464.089 0.41669999999999874
464.393 0.3166999999999973
464.699 0.3833999999999982
465.004 0.3166999999999973
465.308 0.34999999999999787
465.613 0.3833999999999982
465.919 0.1833999999999989
466.225 0.3833999999999982
466.528 0.1999999999999993
466.834 0.29999999999999716
467.139 0.3833999999999982
467.443 0.3333999999999975
467.748 0.41669999999999874
468.054 0.366699999999998
468.357 0.366699999999998
468.663 0.26670000000000016
468.968 0.3166999999999973
469.272 0.366699999999998
469.577 0.41669999999999874
469.883 0.4833999999999996
470.186 0.3999999999999986
470.492 0.3833999999999982
470.797 0.3166999999999973
471.1 0.34999999999999787
471.406 0.29999999999999716
471.711 0.21669999999999945
472.014 0.3166999999999973
472.32 0.5
472.625 0.3999999999999986
472.929 0.46669999999999945
473.234 0.46669999999999945
473.539 0.3833999999999982
473.843 0.366699999999998
474.148 0.4499999999999993
474.451 0.3833999999999982
474.756 0.34999999999999787
475.062 0.3333999999999975
475.365 0.4833999999999996
475.67 0.3833999999999982
475.973 0.5334000000000003
476.279 0.2834000000000003
476.584 0.3999999999999986
476.887 0.5
477.192 0.4333999999999989
477.498 0.7333999999999996
477.801 0.7834000000000003
478.106 0.6499999999999986
478.409 0.8166999999999973
478.714 0.9333999999999989
479.017 0.6499999999999986
479.322 0.8333999999999975
479.628 0.6833999999999989
479.931 0.8166999999999973
480.236 0.7166999999999994
480.539 0.6833999999999989
480.844 0.75
481.147 0.8333999999999975
481.452 0.7333999999999996
481.757 0.7667000000000002
482.06 0.9833999999999996
482.365 0.8333999999999975
482.668 1.0499999999999972
482.973 0.8333999999999975
483.276 0.7333999999999996
483.581 0.8333999999999975
483.884 0.616699999999998
484.189 0.6999999999999993
484.494 0.5900783307230029
484.797 0.5319073054572847
485.102 0.5315972721401394
485.405 0.5392773295900888
485.71 0.5193389142609455
486.013 0.5256847122402277
486.318 0.5427843367985723
486.621 0.5245654585324822
486.925 0.4499999999999993
487.228 0.4499999999999993
487.533 0.3833999999999982
487.836 0.41669999999999874
488.141 0.4833999999999996
488.444 0.25
488.748 0.41669999999999874
489.051 0.3166999999999973
489.356 0.3833999999999982
489.659 0.4333999999999989
489.964 0.366699999999998
490.266 0.3166999999999973
490.571 0.41669999999999874
490.874 0.3166999999999973
491.179 0.4499999999999993
491.481 0.366699999999998
491.786 0.3999999999999986
492.089 0.46669999999999945
492.393 0.25
492.696 0.46669999999999945
493.001 0.3999999999999986
493.303 0.366699999999998
493.606 0.2333999999999996
493.911 0.3333999999999975
494.213 0.3999999999999986
494.518 0.5334000000000003
494.821 0.3333999999999975
495.125 0.1333999999999982
495.428 0.3999999999999986
495.732 0.366699999999998
496.035 0.366699999999998
496.337 0.3999999999999986
496.642 0.3166999999999973
496.945 0.3999999999999986
497.249 0.26670000000000016
497.552 0.3166999999999973
497.856 0.46669999999999945
498.159 0.34999999999999787
498.461 0.3833999999999982
498.766 0.34999999999999787
499.068 0.1833999999999989
499.372 0.5167000000000002
499.675 0.366699999999998
499.977 0.26670000000000016
500.282 0.41669999999999874
500.584 0.3833999999999982
500.889 0.29999999999999716
501.191 0.2834000000000003
501.493 0.2834000000000003
501.798 0.26670000000000016
502.1 0.2834000000000003
502.402 0.3333999999999975
502.707 0.3166999999999973
503.009 0.3166999999999973
503.314 0.4333999999999989
503.616 0.366699999999998
503.918 0.2333999999999996
504.222 0.3333999999999975
504.525 0.4333999999999989
504.827 0.41669999999999874
505.131 0.3333999999999975
505.433 0.3166999999999973
505.736 0.2834000000000003
506.04 0.26670000000000016
506.342 0.3333999999999975
506.646 0.3999999999999986
506.949 0.4333999999999989
507.251 0.34999999999999787
507.555 0.2834000000000003
507.857 0.3833999999999982
508.159 0.3999999999999986
508.461 0.3999999999999986
508.766 0.2834000000000003
509.068 0.3166999999999973
509.37 0.34999999999999787
509.674 0.1833999999999989
509.976 0.3333999999999975
510.278 0.3833999999999982
510.582 0.3833999999999982
510.884 0.3999999999999986
511.186 0.29999999999999716
511.49 0.3833999999999982
511.792 0.3166999999999973
512.094 0.2333999999999996
512.396 0.29999999999999716
512.701 0.3166999999999973
513.003 0.2333999999999996
513.305 0.25
513.609 0.2333999999999996
513.91 0.366699999999998
514.212 0.29999999999999716
514.514 0.21669999999999945
514.818 0.29999999999999716
515.12 0.34999999999999787
515.422 0.3833999999999982
515.724 0.3166999999999973
516.028 0.1999999999999993
516.33 0.1999999999999993
516.632 0.2333999999999996
516.934 0.3166999999999973
517.237 0.3333999999999975
517.539 0.3333999999999975
517.841 0.26670000000000016
518.143 0.4333999999999989
518.447 0.21669999999999945
518.749 0.3833999999999982
519.05 0.41669999999999874
519.352 0.3166999999999973
519.656 0.3166999999999973
519.958 0.3166999999999973
520.26 0.3166999999999973
520.561 0.2834000000000003
520.863 0.2333999999999996
521.167 0.366699999999998
521.468 0.3166999999999973
521.77 0.29999999999999716
522.072 0.3166999999999973
522.376 0.26670000000000016
522.677 0.4833999999999996
522.979 0.3166999999999973
523.281 0.4333999999999989
523.582 0.41669999999999874
523.884 0.366699999999998
524.187 0.34999999999999787
524.489 0.2834000000000003
524.791 0.3999999999999986
525.092 0.3166999999999973
525.394 0.41669999999999874
525.697 0.5
525.999 0.366699999999998
526.301 0.3999999999999986
526.602 0.29999999999999716
526.904 0.3166999999999973
527.205 0.4499999999999993
527.507 0.25
527.81 0.3833999999999982
528.112 0.3166999999999973
528.413 0.2834000000000003
528.715 0.3833999999999982
529.016 0.2333999999999996
529.318 0.34999999999999787
529.619 0.34999999999999787
529.922 0.34999999999999787
530.224 0.29999999999999716
530.525 0.29999999999999716
530.827 0.26670000000000016
531.128 0.29999999999999716
531.429 0.366699999999998
531.731 0.25
532.032 0.4499999999999993
532.336 0.34999999999999787
532.637 0.3333999999999975
532.938 0.3166999999999973
533.24 0.29999999999999716
533.541 0.3833999999999982
533.842 0.4499999999999993
534.143 0.3333999999999975
534.445 0.34999999999999787
534.746 0.3999999999999986
535.047 0.26670000000000016
535.351 0.3166999999999973
535.652 0.3333999999999975
535.953 0.29999999999999716
536.254 0.29999999999999716
536.555 0.26670000000000016
536.857 0.46669999999999945
537.158 0.3333999999999975
537.459 0.3833999999999982
537.76 0.3166999999999973
538.061 0.2834000000000003
538.362 0.41669999999999874
538.664 0.3833999999999982
538.965 0.26670000000000016
539.266 0.3166999999999973
539.567 0.25
539.868 0.41669999999999874
540.169 0.3833999999999982
540.472 0.366699999999998
540.773 0.3166999999999973
541.074 0.34999999999999787
541.375 0.41669999999999874
541.677 0.25
541.978 0.3166999999999973
542.279 0.366699999999998
542.58 0.3999999999999986
542.881 0.29999999999999716
543.182 0.1999999999999993
543.483 0.3999999999999986
543.784 0.4833999999999996
544.085 0.26670000000000016
544.385 0.41669999999999874
544.686 0.4333999999999989
544.987 0.4333999999999989
545.288 0.3833999999999982
545.589 0.2333999999999996
545.89 0.4333999999999989
546.191 0.34999999999999787
546.492 0.3999999999999986
546.793 0.25
547.094 0.34999999999999787
547.394 0.4499999999999993
547.695 0.3333999999999975
547.996 0.3333999999999975
548.297 0.41669999999999874
548.596 0.5499999999999972
548.897 0.4333999999999989
549.197 0.29999999999999716
549.498 0.34999999999999787
549.799 0.41669999999999874
550.1 0.366699999999998
550.4 0.4333999999999989
550.701 0.4833999999999996
551.002 0.4499999999999993
551.303 0.5
551.603 0.5334000000000003
551.904 0.4833999999999996
552.205 0.41669999999999874
552.505 0.46669999999999945
552.806 0.3999999999999986
553.107 0.5666999999999973
553.407 0.4833999999999996
553.706 0.4833999999999996
554.007 0.4833999999999996
554.307 0.5499999999999972
554.608 0.5999999999999979
554.909 0.6333999999999982
555.209 0.5499999999999972
555.51 0.5999999999999979
555.81 0.5999999999999979
556.111 0.5
556.411 0.5334000000000003
556.71 0.5499999999999972
557.01 0.616699999999998
557.311 0.4833999999999996
557.612 0.5833999999999975
557.912 0.4499999999999993
558.213 0.5334000000000003
558.513 0.616699999999998
558.813 0.34999999999999787
559.112 0.6833999999999989
559.412 0.46669999999999945
559.713 0.5334000000000003
560.013 0.4833999999999996
560.314 0.5
560.614 0.5334000000000003
560.914 0.5499999999999972
561.213 0.34999999999999787
561.513 0.3833999999999982
561.814 0.5334000000000003
562.114 0.3166999999999973
562.414 0.46669999999999945
562.715 0.366699999999998
563.015 0.46669999999999945
563.313 0.5
563.614 0.3166999999999973
563.914 0.3166999999999973
564.214 0.4833999999999996
564.515 0.3333999999999975
564.813 0.34999999999999787
565.113 0.34999999999999787
565.413 0.3333999999999975
565.714 0.366699999999998
566.014 0.2834000000000003
566.312 0.2834000000000003
566.612 0.366699999999998
566.912 0.366699999999998
567.213 0.2834000000000003
567.513 0.34999999999999787
567.811 0.4499999999999993
568.111 0.29999999999999716
568.411 0.2834000000000003
568.712 0.4333999999999989
569.012 0.2834000000000003
569.31 0.26670000000000016
569.61 0.4499999999999993
569.91 0.29999999999999716
570.21 0.41669999999999874
570.508 0.3999999999999986
570.808 0.41669999999999874
571.108 0.366699999999998
571.408 0.3333999999999975
571.706 0.26670000000000016
572.006 0.26670000000000016
572.306 0.41669999999999874
572.607 0.2333999999999996
572.904 0.26670000000000016
573.204 0.366699999999998
573.505 0.2333999999999996
573.805 0.5666999999999973
574.102 0.3999999999999986
574.402 0.3333999999999975
574.702 0.4499999999999993
575.002 0.3166999999999973
575.3 0.4833999999999996
575.6 0.2834000000000003
575.9 0.3999999999999986
576.198 0.34999999999999787
576.498 0.2834000000000003
576.798 0.29999999999999716
577.098 0.34999999999999787
577.395 0.29999999999999716
577.695 0.5
577.995 0.26670000000000016
578.293 0.41669999999999874
578.593 0.2834000000000003
578.893 0.3333999999999975
579.19 0.41669999999999874
579.49 0.3833999999999982
579.79 0.3833999999999982
580.088 0.34999999999999787
580.387 0.366699999999998
580.687 0.3999999999999986
580.985 0.3999999999999986
581.285 0.26670000000000016
581.584 0.34999999999999787
581.882 0.29999999999999716
582.182 0.34999999999999787
582.482 0.366699999999998
582.779 0.3833999999999982
583.079 0.2333999999999996
583.378 0.29999999999999716
583.676 0.34999999999999787
583.976 0.3166999999999973
584.275 0.3999999999999986
584.573 0.34999999999999787
584.873 0.4333999999999989
585.17 0.29999999999999716
585.47 0.4499999999999993
585.769 0.366699999999998
586.067 0.2834000000000003
586.367 0.3333999999999975
586.666 0.29999999999999716
586.964 0.34999999999999787
587.263 0.3999999999999986
587.561 0.3333999999999975
587.86 0.3333999999999975
588.16 0.3166999999999973
588.457 0.3333999999999975
588.757 0.3999999999999986
589.054 0.29999999999999716
589.354 0.3833999999999982
589.653 0.3999999999999986
589.951 0.34999999999999787
590.25 0.3833999999999982
590.547 0.4333999999999989
590.847 0.3333999999999975
591.144 0.366699999999998
591.444 0.29999999999999716
591.743 0.366699999999998
592.04 0.2834000000000003
592.34 0.4499999999999993
592.637 0.34999999999999787
592.936 0.2834000000000003
593.234 0.3333999999999975
593.533 0.29999999999999716
593.832 0.366699999999998
594.13 0.3333999999999975
594.429 0.41669999999999874
594.726 0.41669999999999874
595.026 0.2333999999999996
595.323 0.3333999999999975
595.622 0.3333999999999975
595.919 0.46669999999999945
596.219 0.4833999999999996
596.516 0.366699999999998
596.815 0.3333999999999975
597.112 0.3333999999999975
597.411 0.3833999999999982
597.709 0.3833999999999982
598.008 0.26670000000000016
598.305 0.2333999999999996
598.604 0.4333999999999989
598.901 0.3999999999999986
599.2 0.3333999999999975
599.497 0.3999999999999986
599.797 0.3333999999999975
600.094 0.29999999999999716
600.393 0.4333999999999989
600.69 0.3833999999999982
600.989 0.34999999999999787
601.286 0.3166999999999973
601.585 0.3166999999999973
601.882 0.3833999999999982
602.181 0.3999999999999986
602.478 0.3166999999999973
602.777 0.41669999999999874
603.074 0.3999999999999986
603.373 0.25
603.67 0.5
603.969 0.3833999999999982
604.266 0.3999999999999986
604.563 0.4499999999999993
604.862 0.3999999999999986
605.159 0.3333999999999975
605.458 0.3833999999999982
605.755 0.41669999999999874
606.054 0.21669999999999945
606.351 0.3333999999999975
606.65 0.5999999999999979
606.946 0.3999999999999986
607.243 0.5666999999999973
607.542 0.41669999999999874
607.839 0.3333999999999975
608.138 0.2834000000000003
608.435 0.41669999999999874
608.732 0.46669999999999945
609.03 0.3166999999999973
609.327 0.3833999999999982
609.626 0.3999999999999986
609.923 0.4333999999999989
610.22 0.3999999999999986
610.518 0.46669999999999945
610.815 0.5
611.114 0.26670000000000016
611.411 0.41669999999999874
611.707 0.3999999999999986
612.006 0.366699999999998
612.303 0.46669999999999945
612.601 0.366699999999998
612.898 0.4833999999999996
613.195 0.5
613.493 0.3833999999999982
613.79 0.5
614.087 0.4499999999999993
614.385 0.5167000000000002
614.682 0.5167000000000002
614.979 0.46669999999999945
615.277 0.3333999999999975
615.574 0.4333999999999989
615.87 0.3833999999999982
616.169 0.4499999999999993
616.466 0.34999999999999787
616.764 0.5167000000000002
617.061 0.4833999999999996
617.357 0.3833999999999982
617.656 0.3999999999999986
617.952 0.34999999999999787
618.249 0.4333999999999989
618.545 0.41669999999999874
618.844 0.3833999999999982
619.14 0.46669999999999945
619.437 0.3833999999999982
619.735 0.3833999999999982
620.032 0.3166999999999973
620.328 0.3166999999999973
620.626 0.366699999999998
620.923 0.3999999999999986
621.219 0.5
621.518 0.3166999999999973
621.814 0.41669999999999874
622.11 0.3333999999999975
622.407 0.3999999999999986
622.705 0.3833999999999982
623.002 0.34999999999999787
623.298 0.3833999999999982
623.594 0.3833999999999982
623.893 0.29999999999999716
624.189 0.29999999999999716
624.485 0.41669999999999874
624.784 0.26670000000000016
625.08 0.4333999999999989
625.376 0.3333999999999975
625.672 0.29999999999999716
625.971 0.26670000000000016
626.267 0.41669999999999874
626.563 0.4333999999999989
626.859 0.3333999999999975
627.158 0.366699999999998
627.454 0.3166999999999973
627.75 0.3333999999999975
628.046 0.26670000000000016
628.342 0.29999999999999716
628.641 0.3333999999999975
628.937 0.29999999999999716
629.233 0.366699999999998
629.529 0.3166999999999973
629.827 0.29999999999999716
630.123 0.3333999999999975
630.419 0.21669999999999945
630.715 0.4333999999999989
631.011 0.29999999999999716
631.31 0.3166999999999973
631.606 0.29999999999999716
631.902 0.2834000000000003
632.198 0.4333999999999989
632.494 0.3333999999999975
632.792 0.366699999999998
633.088 0.3166999999999973
633.384 0.3333999999999975
633.68 0.34999999999999787
633.976 0.46669999999999945
634.272 0.41669999999999874
634.57 0.3833999999999982
634.866 0.2834000000000003
635.162 0.3999999999999986
635.458 0.366699999999998
635.754 0.5
636.05 0.29999999999999716
636.347 0.3166999999999973
636.643 0.34999999999999787
636.939 0.25
637.235 0.3333999999999975
637.531 0.34999999999999787
637.827 0.34999999999999787
638.123 0.25
638.421 0.4499999999999993
638.716 0.3166999999999973
639.012 0.26670000000000016
639.308 0.3333999999999975
639.604 0.41669999999999874
639.9 0.1999999999999993
640.195 0.41669999999999874
640.491 0.3333999999999975
640.789 0.2834000000000003
641.085 0.3333999999999975
641.381 0.1999999999999993
641.676 0.5
641.972 0.34999999999999787
642.268 0.26670000000000016
642.563 0.3999999999999986
642.859 0.3833999999999982
643.155 0.3166999999999973
643.451 0.2834000000000003
643.746 0.3166999999999973
644.044 0.2834000000000003
644.34 0.366699999999998
644.635 0.3833999999999982
644.931 0.29999999999999716
645.227 0.2333999999999996
645.522 0.4333999999999989
645.818 0.3333999999999975
646.113 0.3833999999999982
646.409 0.34999999999999787
646.704 0.3333999999999975
647.0 0.3833999999999982
647.296 0.3999999999999986
647.591 0.2834000000000003
647.887 0.5167000000000002
648.182 0.366699999999998
648.478 0.5
648.773 0.3166999999999973
649.069 0.3833999999999982
649.366 0.3333999999999975
649.662 0.41669999999999874
649.957 0.5334000000000003
650.253 0.4833999999999996
650.548 0.41669999999999874
650.844 0.2333999999999996
651.139 0.366699999999998
651.434 0.3999999999999986
651.73 0.26670000000000016
652.025 0.3999999999999986
652.321 0.3833999999999982
652.616 0.366699999999998
652.911 0.5167000000000002
653.207 0.3999999999999986
653.502 0.3333999999999975
653.797 0.5334000000000003
654.093 0.46669999999999945
654.388 0.41669999999999874
654.683 0.5167000000000002
654.979 0.3833999999999982
655.274 0.3166999999999973
655.567 0.5
655.863 0.3833999999999982
656.158 0.46669999999999945
656.453 0.4333999999999989
656.748 0.3833999999999982
657.044 0.5666999999999973
657.339 0.6333999999999982
657.634 0.46669999999999945
657.929 0.5833999999999975
658.224 0.5334000000000003
658.52 0.5334000000000003
658.815 0.6666999999999987
659.11 0.6333999999999982
659.405 0.6666999999999987
659.7 0.5833999999999975
659.995 0.5167000000000002
660.291 0.5666999999999973
660.586 0.616699999999998
660.879 0.7333999999999996
661.174 0.6333999999999982
661.469 0.6999999999999993
661.764 0.5833999999999975
662.059 0.7834000000000003
662.354 0.6333999999999982
662.649 0.6333999999999982
662.944 0.6499999999999986
663.239 0.5833999999999975
663.534 0.6499999999999986
663.83 0.46669999999999945
664.122 0.5334000000000003
664.417 0.5
664.713 0.4833999999999996
665.008 0.5999999999999979
665.302 0.5833999999999975
665.597 0.5334000000000003
665.892 0.5833999999999975
666.187 0.46669999999999945
666.48 0.46669999999999945
666.775 0.5999999999999979
667.07 0.4833999999999996
667.365 0.5167000000000002
667.66 0.4333999999999989
667.955 0.3833999999999982
668.25 0.41669999999999874
668.542 0.4499999999999993
668.837 0.4833999999999996
669.132 0.4833999999999996
669.427 0.46669999999999945
669.722 0.5
670.017 0.4333999999999989
670.31 0.5499999999999972
670.604 0.41669999999999874
670.899 0.46669999999999945
671.194 0.4499999999999993
671.489 0.5
671.783 0.4333999999999989
672.076 0.3999999999999986
672.371 0.366699999999998
672.666 0.5334000000000003
672.96 0.46669999999999945
673.255 0.366699999999998
673.548 0.46669999999999945
673.842 0.4499999999999993
674.137 0.46669999999999945
674.432 0.46669999999999945
674.727 0.3999999999999986
675.019 0.3999999999999986
675.314 0.3166999999999973
675.608 0.3833999999999982
675.903 0.26670000000000016
676.196 0.4499999999999993
676.49 0.366699999999998
676.785 0.5
677.079 0.4833999999999996
677.374 0.4833999999999996
677.667 0.3166999999999973
677.961 0.26670000000000016
678.256 0.34999999999999787
678.55 0.2333999999999996
678.843 0.366699999999998
679.137 0.2333999999999996
679.432 0.46669999999999945
679.726 0.29999999999999716
680.019 0.34999999999999787
680.313 0.21669999999999945
680.608 0.4333999999999989
680.902 0.3166999999999973
681.195 0.4333999999999989
681.489 0.366699999999998
681.784 0.3333999999999975
682.076 0.34999999999999787
682.37 0.3833999999999982
682.665 0.46669999999999945
682.959 0.41669999999999874
683.252 0.2834000000000003
683.546 0.3833999999999982
683.84 0.41669999999999874
684.133 0.4499999999999993
684.427 0.34999999999999787
684.721 0.4499999999999993
685.014 0.3166999999999973
685.308 0.34999999999999787
685.602 0.3999999999999986
685.895 0.3833999999999982
686.189 0.3999999999999986
686.483 0.29999999999999716
686.778 0.366699999999998
687.07 0.3833999999999982
687.364 0.2333999999999996
687.658 0.2834000000000003
687.951 0.25
688.245 0.29999999999999716
688.537 0.3999999999999986
688.831 0.3999999999999986
689.125 0.3166999999999973
689.418 0.4333999999999989
689.712 0.3833999999999982
690.006 0.3166999999999973
690.298 0.29999999999999716
690.592 0.366699999999998
690.886 0.3166999999999973
691.178 0.2834000000000003
691.473 0.3333999999999975
691.767 0.366699999999998
692.059 0.3999999999999986
692.353 0.3999999999999986
692.645 0.34999999999999787
692.939 0.2834000000000003
693.233 0.3333999999999975
693.525 0.34999999999999787
693.819 0.5334000000000003
694.111 0.34999999999999787
694.405 0.4499999999999993
694.699 0.3166999999999973
694.991 0.25
695.285 0.25
695.577 0.366699999999998
695.871 0.34999999999999787
696.165 0.4333999999999989
696.457 0.3999999999999986
696.751 0.2834000000000003
697.043 0.4333999999999989
697.337 0.41669999999999874
697.629 0.366699999999998
697.923 0.3166999999999973
698.217 0.34999999999999787
698.509 0.3166999999999973
698.802 0.29999999999999716
699.094 0.3333999999999975
699.388 0.29999999999999716
699.68 0.3833999999999982
699.974 0.366699999999998
700.266 0.2834000000000003
700.56 0.3999999999999986
700.853 0.3333999999999975
701.145 0.3166999999999973
701.439 0.3166999999999973
701.731 0.26670000000000016
702.025 0.29999999999999716
702.316 0.41669999999999874
702.61 0.3833999999999982
702.902 0.3333999999999975
703.196 0.34999999999999787
703.487 0.3833999999999982
703.781 0.366699999999998
704.073 0.366699999999998
704.367 0.41669999999999874
704.658 0.3833999999999982
704.952 0.29999999999999716
705.244 0.3166999999999973
705.537 0.3333999999999975
705.829 0.366699999999998
706.122 0.2834000000000003
706.414 0.2834000000000003
706.708 0.25
706.999 0.2333999999999996
707.293 0.3833999999999982
