# Created: 2019-11-28 13:05:43.252765
# rshift intensity
76.1738 0.14999999999999858
76.4989 0.283299999999997
76.824 0.11659999999999826
77.1491 0.13329999999999842
77.4721 0.08329999999999771
77.7972 0.1999999999999993
78.1223 0.21659999999999968
78.4474 0.09999999999999787
78.7724 0.033299999999997
79.0975 0.13329999999999842
79.4204 0.06659999999999755
79.7454 0.13329999999999842
80.0704 0.06659999999999755
80.3954 0.08329999999999771
80.7204 0.08329999999999771
81.0454 0.033299999999997
81.3682 0.16659999999999897
81.6931 0.09999999999999787
82.0181 0.21659999999999968
82.343 0.16659999999999897
82.6679 0.033299999999997
82.9907 0.16659999999999897
83.3156 0.11659999999999826
83.6405 0.04999999999999716
83.9654 0.11659999999999826
84.2903 0.04999999999999716
84.613 0.11659999999999826
84.9378 0.033299999999997
85.2626 0.13329999999999842
85.5875 0.14999999999999858
85.9101 0.09999999999999787
86.2349 0.18329999999999913
86.5597 0.14999999999999858
86.8845 0.13329999999999842
87.2093 0.16659999999999897
87.5319 0.11659999999999826
87.8566 0.1999999999999993
88.1814 0.08329999999999771
88.5061 0.11659999999999826
88.8286 0.11659999999999826
89.1533 0.04999999999999716
89.478 0.21659999999999968
89.8027 0.14999999999999858
90.1252 0.11659999999999826
90.4499 0.13329999999999842
90.7745 0.16659999999999897
91.0992 0.08329999999999771
91.4216 0.13329999999999842
91.7462 0.16659999999999897
92.0708 0.04999999999999716
92.3954 0.06659999999999755
92.7179 0.13329999999999842
93.0424 0.09999999999999787
93.367 0.11659999999999826
93.6915 0.09999999999999787
94.0139 0.18329999999999913
94.3384 0.11659999999999826
94.6629 0.06659999999999755
94.9853 0.16659999999999897
95.3098 0.04999999999999716
95.6342 0.13329999999999842
95.9587 0.16659999999999897
96.281 0.08329999999999771
96.6055 0.16659999999999897
96.9299 0.033299999999997
97.2522 0.13329999999999842
97.5766 0.08329999999999771
97.901 0.09999999999999787
98.2232 0.21659999999999968
98.5476 0.04999999999999716
98.8719 0.11659999999999826
99.1942 0.04999999999999716
99.5185 0.14999999999999858
99.8428 0.13329999999999842
100.165 0.09999999999999787
100.489 0.09999999999999787
100.814 0.13329999999999842
101.136 0.04999999999999716
101.46 0.09999999999999787
101.784 0.09999999999999787
102.106 0.25
102.431 0.06659999999999755
102.755 0.033299999999997
103.077 0.25
103.401 0.09999999999999787
103.725 0.23329999999999984
104.047 0.01659999999999684
104.372 0.08329999999999771
104.696 0.18329999999999913
105.018 0.13329999999999842
105.342 0.11659999999999826
105.666 0.09999999999999787
105.988 0.11659999999999826
106.312 0.13329999999999842
106.634 0.08329999999999771
106.958 0.25
107.282 0.08329999999999771
107.604 0.06659999999999755
107.928 0.25
108.252 0.08329999999999771
108.574 0.18329999999999913
108.898 0.06659999999999755
109.22 0.09999999999999787
109.544 0.09999999999999787
109.868 0.11659999999999826
110.19 0.14999999999999858
110.514 0.11659999999999826
110.836 0.0
111.159 0.08329999999999771
111.483 0.08329999999999771
111.805 0.14999999999999858
112.129 0.08329999999999771
112.451 0.16659999999999897
112.775 0.11659999999999826
113.096 0.14999999999999858
113.42 0.09999999999999787
113.744 0.09999999999999787
114.066 0.033299999999997
114.39 0.11659999999999826
114.711 0.06659999999999755
115.035 0.18329999999999913
115.357 0.14999999999999858
115.681 0.11659999999999826
116.004 0.16659999999999897
116.326 0.13329999999999842
116.65 0.13329999999999842
116.971 0.11659999999999826
117.295 0.11659999999999826
117.617 0.09999999999999787
117.94 0.18329999999999913
118.262 0.14999999999999858
118.586 0.14999999999999858
118.907 0.14999999999999858
119.231 0.14999999999999858
119.554 0.11659999999999826
119.876 0.25
120.199 0.11659999999999826
120.521 0.14999999999999858
120.845 0.1999999999999993
121.166 0.06659999999999755
121.49 0.18329999999999913
121.811 0.09999999999999787
122.135 0.1999999999999993
122.456 0.09999999999999787
122.78 0.13329999999999842
123.101 0.11659999999999826
123.424 0.16659999999999897
123.746 0.11659999999999826
124.069 0.11659999999999826
124.391 0.06659999999999755
124.714 0.16659999999999897
125.035 0.14999999999999858
125.359 0.21659999999999968
125.68 0.14999999999999858
126.004 0.09999999999999787
126.325 0.13329999999999842
126.648 0.14999999999999858
126.97 0.16659999999999897
127.291 0.16659999999999897
127.614 0.16659999999999897
127.935 0.1999999999999993
128.259 0.09999999999999787
128.58 0.1999999999999993
128.903 0.09999999999999787
129.224 0.26659999999999684
129.548 0.23329999999999984
129.869 0.08329999999999771
130.192 0.1999999999999993
130.513 0.13329999999999842
130.834 0.16659999999999897
131.158 0.16659999999999897
131.479 0.08329999999999771
131.802 0.14999999999999858
132.123 0.18329999999999913
132.446 0.23329999999999984
132.767 0.1999999999999993
133.09 0.18329999999999913
133.411 0.18329999999999913
133.733 0.06659999999999755
134.056 0.11659999999999826
134.377 0.16659999999999897
134.7 0.11659999999999826
135.021 0.09999999999999787
135.342 0.08329999999999771
135.665 0.09999999999999787
135.986 0.13329999999999842
136.309 0.16659999999999897
136.63 0.21659999999999968
136.951 0.09999999999999787
137.274 0.16659999999999897
137.595 0.16659999999999897
137.918 0.13329999999999842
138.238 0.18329999999999913
138.559 0.06659999999999755
138.882 0.16659999999999897
139.203 0.14999999999999858
139.526 0.1999999999999993
139.847 0.11659999999999826
140.168 0.09999999999999787
140.491 0.18329999999999913
140.811 0.18329999999999913
141.132 0.14999999999999858
141.455 0.14999999999999858
141.776 0.08329999999999771
142.097 0.21659999999999968
142.419 0.18329999999999913
142.74 0.11659999999999826
143.061 0.14999999999999858
143.384 0.14999999999999858
143.704 0.16659999999999897
144.027 0.033299999999997
144.348 0.13329999999999842
144.668 0.1999999999999993
144.991 0.09999999999999787
145.312 0.23329999999999984
145.632 0.11659999999999826
145.955 0.18329999999999913
146.276 0.13329999999999842
146.596 0.09999999999999787
146.917 0.21659999999999968
147.24 0.06659999999999755
147.56 0.09999999999999787
147.881 0.18329999999999913
148.203 0.1999999999999993
148.524 0.21659999999999968
148.844 0.14999999999999858
149.167 0.1999999999999993
149.487 0.1999999999999993
149.808 0.18329999999999913
150.131 0.13329999999999842
150.451 0.08329999999999771
150.771 0.23329999999999984
151.092 0.09999999999999787
151.414 0.23329999999999984
151.735 0.11659999999999826
152.055 0.18329999999999913
152.378 0.14999999999999858
152.698 0.04999999999999716
153.018 0.14999999999999858
153.339 0.25
153.661 0.11659999999999826
153.982 0.13329999999999842
154.302 0.16659999999999897
154.622 0.09999999999999787
154.945 0.13329999999999842
155.265 0.11659999999999826
155.585 0.16659999999999897
155.905 0.16659999999999897
156.228 0.04999999999999716
156.548 0.21659999999999968
156.868 0.09999999999999787
157.188 0.11659999999999826
157.511 0.11659999999999826
157.831 0.1999999999999993
158.151 0.16659999999999897
158.471 0.11659999999999826
158.794 0.09999999999999787
159.114 0.14999999999999858
159.434 0.21659999999999968
159.754 0.14999999999999858
160.074 0.14999999999999858
160.396 0.16659999999999897
160.717 0.11659999999999826
161.037 0.23329999999999984
161.357 0.16659999999999897
161.679 0.11659999999999826
161.999 0.283299999999997
162.319 0.13329999999999842
162.639 0.18329999999999913
162.959 0.16659999999999897
163.281 0.1999999999999993
163.601 0.06659999999999755
163.921 0.18329999999999913
164.241 0.1999999999999993
164.561 0.21659999999999968
164.881 0.21659999999999968
165.203 0.14999999999999858
165.523 0.18329999999999913
165.843 0.13329999999999842
166.163 0.14999999999999858
166.483 0.13329999999999842
166.803 0.23329999999999984
167.125 0.13329999999999842
167.445 0.21659999999999968
167.764 0.25
168.084 0.1999999999999993
168.404 0.25
168.724 0.13329999999999842
169.046 0.11659999999999826
169.366 0.14999999999999858
169.685 0.13329999999999842
170.005 0.26659999999999684
170.325 0.033299999999997
170.645 0.11659999999999826
170.964 0.21659999999999968
171.286 0.09999999999999787
171.606 0.18329999999999913
171.926 0.16659999999999897
172.245 0.09999999999999787
172.565 0.18329999999999913
172.885 0.21659999999999968
173.204 0.1999999999999993
173.524 0.06659999999999755
173.846 0.14999999999999858
174.166 0.11659999999999826
174.485 0.09999999999999787
174.805 0.13329999999999842
175.124 0.21659999999999968
175.444 0.11659999999999826
175.764 0.06659999999999755
176.083 0.11659999999999826
176.403 0.13329999999999842
176.722 0.14999999999999858
177.044 0.21659999999999968
177.363 0.16659999999999897
177.683 0.14999999999999858
178.002 0.09999999999999787
178.322 0.06659999999999755
178.641 0.11659999999999826
178.961 0.21659999999999968
179.28 0.14999999999999858
179.6 0.14999999999999858
179.919 0.11659999999999826
180.239 0.21659999999999968
180.558 0.08329999999999771
180.877 0.23329999999999984
181.197 0.14999999999999858
181.516 0.26659999999999684
181.838 0.23329999999999984
182.157 0.23329999999999984
182.476 0.16659999999999897
182.796 0.09999999999999787
183.115 0.11659999999999826
183.434 0.13329999999999842
183.754 0.11659999999999826
184.073 0.18329999999999913
184.392 0.21659999999999968
184.712 0.29999999999999716
185.031 0.16659999999999897
185.35 0.11659999999999826
185.669 0.18329999999999913
185.989 0.11659999999999826
186.308 0.14999999999999858
186.627 0.16659999999999897
186.946 0.14999999999999858
187.265 0.18329999999999913
187.585 0.23329999999999984
187.904 0.11659999999999826
188.223 0.14999999999999858
188.542 0.14999999999999858
188.861 0.06659999999999755
189.18 0.283299999999997
189.499 0.14999999999999858
189.818 0.14999999999999858
190.138 0.13329999999999842
190.457 0.18329999999999913
190.776 0.16659999999999897
191.095 0.1999999999999993
191.414 0.18329999999999913
191.733 0.13329999999999842
192.052 0.23329999999999984
192.371 0.18329999999999913
192.69 0.23329999999999984
193.009 0.18329999999999913
193.328 0.18329999999999913
193.647 0.1999999999999993
193.966 0.18329999999999913
194.285 0.1999999999999993
194.602 0.18329999999999913
194.92 0.04999999999999716
195.239 0.13329999999999842
195.558 0.13329999999999842
195.877 0.14999999999999858
196.196 0.13329999999999842
196.515 0.09999999999999787
196.834 0.11659999999999826
197.153 0.13329999999999842
197.471 0.1999999999999993
197.79 0.1999999999999993
198.109 0.13329999999999842
198.428 0.11659999999999826
198.747 0.1999999999999993
199.065 0.21659999999999968
199.382 0.21659999999999968
199.701 0.18329999999999913
200.02 0.21659999999999968
200.338 0.11659999999999826
200.657 0.18329999999999913
200.976 0.1999999999999993
201.295 0.09999999999999787
201.613 0.21659999999999968
201.932 0.18329999999999913
202.251 0.11659999999999826
202.567 0.25
202.886 0.09999999999999787
203.204 0.1999999999999993
203.523 0.14999999999999858
203.842 0.23329999999999984
204.16 0.25
204.479 0.21659999999999968
204.797 0.13329999999999842
205.114 0.18329999999999913
205.433 0.18329999999999913
205.751 0.283299999999997
206.07 0.23329999999999984
206.388 0.16659999999999897
206.707 0.16659999999999897
207.025 0.14999999999999858
207.342 0.16659999999999897
207.66 0.13329999999999842
207.979 0.13329999999999842
208.297 0.08329999999999771
208.615 0.14999999999999858
208.934 0.21659999999999968
209.25 0.09999999999999787
209.569 0.25
209.887 0.1999999999999993
210.205 0.25
210.524 0.18329999999999913
210.842 0.13329999999999842
211.158 0.14999999999999858
211.477 0.1999999999999993
211.795 0.18329999999999913
212.113 0.14999999999999858
212.432 0.14999999999999858
212.75 0.08329999999999771
213.066 0.21659999999999968
213.385 0.1999999999999993
213.703 0.29999999999999716
214.021 0.25
214.339 0.23329999999999984
214.656 0.13329999999999842
214.974 0.23329999999999984
215.292 0.1999999999999993
215.61 0.11659999999999826
215.926 0.1999999999999993
216.245 0.25
216.563 0.21659999999999968
216.881 0.09999999999999787
217.199 0.09999999999999787
217.515 0.25
217.833 0.16659999999999897
218.151 0.29999999999999716
218.469 0.11659999999999826
218.785 0.25
219.104 0.21659999999999968
219.422 0.26659999999999684
219.74 0.29999999999999716
220.056 0.14999999999999858
220.374 0.14999999999999858
220.692 0.14999999999999858
221.01 0.283299999999997
221.326 0.283299999999997
221.644 0.23329999999999984
221.962 0.21659999999999968
222.28 0.16659999999999897
222.596 0.23329999999999984
222.914 0.21659999999999968
223.232 0.18329999999999913
223.547 0.23329999999999984
223.865 0.283299999999997
224.183 0.1999999999999993
224.501 0.1999999999999993
224.817 0.14999999999999858
225.135 0.1999999999999993
225.453 0.1999999999999993
225.768 0.23329999999999984
226.086 0.23329999999999984
226.404 0.14999999999999858
226.722 0.283299999999997
227.038 0.23329999999999984
227.355 0.14999999999999858
227.673 0.14999999999999858
227.989 0.1999999999999993
228.307 0.16659999999999897
228.625 0.16659999999999897
228.94 0.21659999999999968
229.258 0.1999999999999993
229.576 0.18329999999999913
229.891 0.26659999999999684
230.209 0.21659999999999968
230.527 0.283299999999997
230.842 0.29999999999999716
231.16 0.21659999999999968
231.478 0.26659999999999684
231.793 0.13329999999999842
232.111 0.16659999999999897
232.428 0.16659999999999897
232.744 0.283299999999997
233.062 0.3332999999999977
233.379 0.16659999999999897
233.695 0.25
234.012 0.1999999999999993
234.33 0.23329999999999984
234.645 0.23329999999999984
234.963 0.283299999999997
235.278 0.14999999999999858
235.596 0.13329999999999842
235.913 0.14999999999999858
236.229 0.14999999999999858
236.546 0.13329999999999842
236.864 0.18329999999999913
237.179 0.21659999999999968
237.497 0.26659999999999684
237.812 0.18329999999999913
238.129 0.16659999999999897
238.447 0.18329999999999913
238.762 0.08329999999999771
239.08 0.18329999999999913
239.395 0.21659999999999968
239.712 0.11659999999999826
240.03 0.25
240.345 0.23329999999999984
240.662 0.26659999999999684
240.978 0.23329999999999984
241.295 0.11659999999999826
241.61 0.09999999999999787
241.927 0.14999999999999858
242.245 0.23329999999999984
242.56 0.21659999999999968
242.877 0.13329999999999842
243.192 0.11659999999999826
243.51 0.14999999999999858
243.825 0.23329999999999984
244.142 0.31659999999999755
244.459 0.16659999999999897
244.774 0.283299999999997
245.092 0.34999999999999787
245.407 0.23329999999999984
245.724 0.283299999999997
246.039 0.3332999999999977
246.356 0.25
246.671 0.26659999999999684
246.988 0.25
247.303 0.1999999999999993
247.62 0.18329999999999913
247.938 0.18329999999999913
248.253 0.18329999999999913
248.57 0.11659999999999826
248.885 0.283299999999997
249.202 0.29999999999999716
249.517 0.31659999999999755
249.834 0.13329999999999842
250.149 0.23329999999999984
250.466 0.23329999999999984
250.781 0.1999999999999993
251.098 0.16659999999999897
251.412 0.283299999999997
251.729 0.18329999999999913
252.044 0.1999999999999993
252.361 0.283299999999997
252.676 0.21659999999999968
252.993 0.13329999999999842
253.308 0.13329999999999842
253.625 0.25
253.94 0.25
254.256 0.18329999999999913
254.571 0.26659999999999684
254.888 0.26659999999999684
255.203 0.11659999999999826
255.518 0.23329999999999984
255.834 0.26659999999999684
256.149 0.21659999999999968
256.466 0.283299999999997
256.781 0.18329999999999913
257.097 0.18329999999999913
257.412 0.23329999999999984
257.729 0.26659999999999684
258.044 0.26659999999999684
258.36 0.18329999999999913
258.675 0.21659999999999968
258.99 0.16659999999999897
259.306 0.26659999999999684
259.621 0.25
259.938 0.25
260.252 0.23329999999999984
260.569 0.21659999999999968
260.883 0.26659999999999684
261.198 0.21659999999999968
261.515 0.23329999999999984
261.829 0.18329999999999913
262.146 0.11659999999999826
262.46 0.29999999999999716
262.775 0.1999999999999993
263.091 0.14999999999999858
263.406 0.26659999999999684
263.723 0.1999999999999993
264.037 0.25
264.354 0.283299999999997
264.668 0.25
264.982 0.21659999999999968
265.299 0.14999999999999858
265.613 0.18329999999999913
265.928 0.13329999999999842
266.244 0.14999999999999858
266.559 0.16659999999999897
266.875 0.21659999999999968
267.189 0.21659999999999968
267.504 0.21659999999999968
267.82 0.11659999999999826
268.134 0.1999999999999993
268.449 0.13329999999999842
268.765 0.21659999999999968
269.079 0.21659999999999968
269.394 0.16659999999999897
269.71 0.23329999999999984
270.024 0.16659999999999897
270.341 0.283299999999997
270.655 0.23329999999999984
270.969 0.26659999999999684
271.286 0.13329999999999842
271.6 0.16659999999999897
271.914 0.16659999999999897
272.23 0.18329999999999913
272.544 0.14999999999999858
272.859 0.1999999999999993
273.175 0.18329999999999913
273.489 0.25
273.803 0.21659999999999968
274.119 0.21659999999999968
274.433 0.21659999999999968
274.747 0.13329999999999842
275.062 0.13329999999999842
275.378 0.29999999999999716
275.692 0.14999999999999858
276.006 0.25
276.322 0.283299999999997
276.636 0.23329999999999984
276.95 0.25
277.266 0.11659999999999826
277.58 0.283299999999997
277.894 0.21659999999999968
278.208 0.26659999999999684
278.524 0.1999999999999993
278.838 0.16659999999999897
279.152 0.1999999999999993
279.468 0.25
279.782 0.31659999999999755
280.096 0.21659999999999968
280.41 0.1999999999999993
280.726 0.23329999999999984
281.04 0.18329999999999913
281.354 0.21659999999999968
281.668 0.11659999999999826
281.983 0.14999999999999858
282.297 0.34999999999999787
282.611 0.16659999999999897
282.925 0.18329999999999913
283.241 0.31659999999999755
283.555 0.11659999999999826
283.868 0.31659999999999755
284.182 0.23329999999999984
284.498 0.21659999999999968
284.812 0.16659999999999897
285.126 0.1999999999999993
285.439 0.14999999999999858
285.753 0.23329999999999984
286.069 0.21659999999999968
286.383 0.25
286.696 0.14999999999999858
287.01 0.16659999999999897
287.326 0.25
287.639 0.21659999999999968
287.953 0.1999999999999993
288.267 0.21659999999999968
288.58 0.18329999999999913
288.896 0.1999999999999993
289.21 0.31659999999999755
289.523 0.21659999999999968
289.837 0.26659999999999684
290.15 0.21659999999999968
290.466 0.3332999999999977
290.78 0.283299999999997
291.093 0.21659999999999968
291.407 0.1999999999999993
291.72 0.13329999999999842
292.034 0.1999999999999993
292.349 0.16659999999999897
292.663 0.1999999999999993
292.976 0.3332999999999977
293.29 0.1999999999999993
293.603 0.18329999999999913
293.917 0.283299999999997
294.232 0.34999999999999787
294.546 0.23329999999999984
294.859 0.25
295.172 0.16659999999999897
295.486 0.283299999999997
295.799 0.23329999999999984
296.113 0.18329999999999913
296.428 0.13329999999999842
296.741 0.29999999999999716
297.055 0.23329999999999984
297.368 0.283299999999997
297.681 0.25
297.995 0.25
298.308 0.09999999999999787
298.621 0.13329999999999842
298.937 0.13329999999999842
299.25 0.29999999999999716
299.563 0.21659999999999968
299.876 0.25
300.19 0.1999999999999993
300.503 0.11659999999999826
300.816 0.1999999999999993
301.129 0.23329999999999984
301.442 0.23329999999999984
301.756 0.21659999999999968
302.071 0.09999999999999787
302.384 0.16659999999999897
302.697 0.13329999999999842
303.01 0.21659999999999968
303.323 0.21659999999999968
303.637 0.1999999999999993
303.95 0.26659999999999684
304.263 0.23329999999999984
304.576 0.1999999999999993
304.889 0.13329999999999842
305.202 0.18329999999999913
305.515 0.31659999999999755
305.828 0.25
306.141 0.1999999999999993
306.456 0.31659999999999755
306.769 0.18329999999999913
307.082 0.11659999999999826
307.395 0.18329999999999913
307.708 0.21659999999999968
308.021 0.23329999999999984
308.334 0.25
308.647 0.13329999999999842
308.96 0.21659999999999968
309.273 0.23329999999999984
309.586 0.1999999999999993
309.899 0.21659999999999968
310.212 0.23329999999999984
310.525 0.26659999999999684
310.838 0.14999999999999858
311.15 0.21659999999999968
311.463 0.1999999999999993
311.776 0.283299999999997
312.089 0.26659999999999684
312.402 0.283299999999997
312.715 0.18329999999999913
313.027 0.283299999999997
313.34 0.1999999999999993
313.653 0.11659999999999826
313.966 0.29999999999999716
314.278 0.1999999999999993
314.591 0.3332999999999977
314.904 0.1999999999999993
315.217 0.16659999999999897
315.529 0.29999999999999716
315.842 0.18329999999999913
316.155 0.13329999999999842
316.467 0.29999999999999716
316.78 0.14999999999999858
317.093 0.25
317.405 0.25
317.718 0.34999999999999787
318.031 0.25
318.343 0.1999999999999993
318.656 0.1999999999999993
318.969 0.11659999999999826
319.281 0.31659999999999755
319.592 0.23329999999999984
319.904 0.21659999999999968
320.217 0.14999999999999858
320.529 0.1999999999999993
320.842 0.29999999999999716
321.154 0.31659999999999755
321.467 0.18329999999999913
321.779 0.21659999999999968
322.092 0.25
322.404 0.1999999999999993
322.717 0.29999999999999716
323.029 0.1999999999999993
323.342 0.23329999999999984
323.654 0.25
323.965 0.18329999999999913
324.277 0.283299999999997
324.589 0.23329999999999984
324.902 0.1999999999999993
325.214 0.25
325.527 0.283299999999997
325.839 0.283299999999997
326.151 0.21659999999999968
326.464 0.23329999999999984
326.776 0.18329999999999913
327.086 0.283299999999997
327.399 0.21659999999999968
327.711 0.3999999999999986
328.023 0.283299999999997
328.335 0.283299999999997
328.648 0.29999999999999716
328.96 0.31659999999999755
329.27 0.23329999999999984
329.582 0.3999999999999986
329.895 0.29999999999999716
330.207 0.34999999999999787
330.519 0.283299999999997
330.831 0.3999999999999986
331.143 0.3999999999999986
331.454 0.3332999999999977
331.766 0.29999999999999716
332.078 0.41659999999999897
332.39 0.41659999999999897
332.702 0.3332999999999977
333.014 0.29999999999999716
333.326 0.31659999999999755
333.636 0.29999999999999716
333.948 0.4499999999999993
334.261 0.26659999999999684
334.573 0.25
334.885 0.43329999999999913
335.195 0.26659999999999684
335.507 0.36659999999999826
335.819 0.23329999999999984
336.131 0.21659999999999968
336.443 0.283299999999997
336.753 0.29999999999999716
337.065 0.3332999999999977
337.377 0.23329999999999984
337.689 0.283299999999997
338.001 0.26659999999999684
338.31 0.23329999999999984
338.622 0.283299999999997
338.934 0.36659999999999826
339.246 0.29999999999999716
339.558 0.29999999999999716
339.868 0.21659999999999968
340.18 0.14999999999999858
340.492 0.3332999999999977
340.804 0.25
341.113 0.14999999999999858
341.425 0.1999999999999993
341.737 0.31659999999999755
342.049 0.31659999999999755
342.361 0.26659999999999684
342.67 0.23329999999999984
342.982 0.26659999999999684
343.294 0.34999999999999787
343.606 0.21659999999999968
343.915 0.26659999999999684
344.227 0.31659999999999755
344.539 0.34999999999999787
344.849 0.21659999999999968
345.16 0.283299999999997
345.472 0.34999999999999787
345.784 0.23329999999999984
346.093 0.1999999999999993
346.405 0.283299999999997
346.717 0.283299999999997
347.028 0.34999999999999787
347.338 0.43329999999999913
347.649 0.23329999999999984
347.961 0.31659999999999755
348.271 0.25
348.582 0.25
348.894 0.21659999999999968
349.205 0.18329999999999913
349.515 0.25
349.826 0.25
350.138 0.29999999999999716
350.447 0.21659999999999968
350.759 0.23329999999999984
351.07 0.34999999999999787
351.38 0.283299999999997
351.691 0.36659999999999826
352.003 0.36659999999999826
352.312 0.1999999999999993
352.624 0.283299999999997
352.935 0.21659999999999968
353.245 0.29999999999999716
353.556 0.25
353.867 0.23329999999999984
354.177 0.4499999999999993
354.488 0.18329999999999913
354.799 0.29999999999999716
355.109 0.25
355.42 0.36659999999999826
355.732 0.36659999999999826
356.041 0.29999999999999716
356.352 0.283299999999997
356.663 0.25
356.973 0.29999999999999716
357.284 0.1999999999999993
357.593 0.23329999999999984
357.905 0.26659999999999684
358.216 0.29999999999999716
358.525 0.3999999999999986
358.836 0.31659999999999755
359.147 0.283299999999997
359.457 0.34999999999999787
359.768 0.16659999999999897
360.077 0.23329999999999984
360.388 0.29999999999999716
360.699 0.23329999999999984
361.008 0.29999999999999716
361.32 0.25
361.629 0.36659999999999826
361.94 0.29999999999999716
362.251 0.283299999999997
362.56 0.41659999999999897
362.871 0.18329999999999913
363.18 0.36659999999999826
363.491 0.29999999999999716
363.8 0.23329999999999984
364.111 0.31659999999999755
364.422 0.3332999999999977
364.731 0.41659999999999897
365.042 0.21659999999999968
365.351 0.29999999999999716
365.662 0.25
365.971 0.3999999999999986
366.282 0.1999999999999993
366.593 0.31659999999999755
366.902 0.283299999999997
367.213 0.34999999999999787
367.522 0.26659999999999684
367.833 0.283299999999997
368.142 0.3332999999999977
368.453 0.36659999999999826
368.762 0.41659999999999897
369.073 0.25
369.381 0.34999999999999787
369.692 0.4499999999999993
370.001 0.36659999999999826
370.312 0.31659999999999755
370.623 0.36659999999999826
370.932 0.21659999999999968
371.242 0.26659999999999684
371.551 0.1999999999999993
371.862 0.29999999999999716
372.171 0.16659999999999897
372.482 0.34999999999999787
372.79 0.36659999999999826
373.101 0.29999999999999716
373.41 0.283299999999997
373.721 0.283299999999997
374.029 0.3332999999999977
374.34 0.25
374.649 0.29999999999999716
374.959 0.283299999999997
375.268 0.21659999999999968
375.577 0.283299999999997
375.887 0.14999999999999858
376.196 0.34999999999999787
376.506 0.3332999999999977
376.815 0.29999999999999716
377.126 0.16659999999999897
377.434 0.26659999999999684
377.745 0.36659999999999826
378.053 0.283299999999997
378.364 0.283299999999997
378.672 0.34999999999999787
378.983 0.1999999999999993
379.292 0.1999999999999993
379.6 0.3999999999999986
379.911 0.23329999999999984
380.219 0.25
380.53 0.25
380.838 0.283299999999997
381.148 0.283299999999997
381.457 0.25
381.767 0.26659999999999684
382.076 0.26659999999999684
382.384 0.26659999999999684
382.695 0.3332999999999977
383.003 0.21659999999999968
383.313 0.34999999999999787
383.622 0.31659999999999755
383.93 0.1999999999999993
384.24 0.31659999999999755
384.549 0.21659999999999968
384.859 0.21659999999999968
385.167 0.21659999999999968
385.476 0.3332999999999977
385.786 0.25
386.094 0.29999999999999716
386.405 0.41659999999999897
386.713 0.1999999999999993
387.021 0.283299999999997
387.331 0.3832999999999984
387.64 0.41659999999999897
387.948 0.21659999999999968
388.258 0.3332999999999977
388.566 0.3332999999999977
388.877 0.34999999999999787
389.185 0.31659999999999755
389.493 0.3832999999999984
389.803 0.26659999999999684
390.111 0.29999999999999716
390.419 0.36659999999999826
390.729 0.25
391.038 0.25
391.346 0.31659999999999755
391.656 0.41659999999999897
391.964 0.23329999999999984
392.272 0.23329999999999984
392.582 0.36659999999999826
392.89 0.29999999999999716
393.198 0.3332999999999977
393.508 0.23329999999999984
393.816 0.41659999999999897
394.124 0.21659999999999968
394.434 0.3999999999999986
394.742 0.31659999999999755
395.05 0.23329999999999984
395.36 0.1999999999999993
395.668 0.3999999999999986
395.976 0.1999999999999993
396.286 0.25
396.594 0.34999999999999787
396.902 0.283299999999997
397.21 0.3332999999999977
397.52 0.29999999999999716
397.828 0.34999999999999787
398.135 0.25
398.445 0.23329999999999984
398.753 0.36659999999999826
399.061 0.25
399.369 0.3999999999999986
399.679 0.26659999999999684
399.987 0.34999999999999787
400.294 0.23329999999999984
400.604 0.283299999999997
400.912 0.29999999999999716
401.22 0.3332999999999977
401.527 0.21659999999999968
401.837 0.29999999999999716
402.145 0.31659999999999755
402.453 0.4499999999999993
402.76 0.31659999999999755
403.07 0.29999999999999716
403.378 0.34999999999999787
403.686 0.23329999999999984
403.993 0.3832999999999984
404.303 0.283299999999997
404.611 0.283299999999997
404.918 0.25
405.226 0.283299999999997
405.533 0.4665999999999997
405.843 0.31659999999999755
406.151 0.25
406.458 0.3832999999999984
406.766 0.31659999999999755
407.076 0.36659999999999826
407.383 0.26659999999999684
407.691 0.3832999999999984
407.998 0.3832999999999984
408.306 0.34999999999999787
408.615 0.283299999999997
408.923 0.3332999999999977
409.23 0.4499999999999993
409.538 0.29999999999999716
409.845 0.31659999999999755
410.153 0.43329999999999913
410.462 0.31659999999999755
410.77 0.3999999999999986
411.077 0.31659999999999755
411.384 0.4665999999999997
411.692 0.48329999999999984
412.001 0.4499999999999993
412.309 0.41659999999999897
412.616 0.34999999999999787
412.923 0.5165999999999968
413.231 0.43329999999999913
413.538 0.4499999999999993
413.845 0.48329999999999984
414.155 0.4665999999999997
414.462 0.4665999999999997
414.769 0.4499999999999993
415.077 0.41659999999999897
415.384 0.43329999999999913
415.691 0.43329999999999913
415.999 0.6165999999999983
416.308 0.5499999999999972
416.615 0.41659999999999897
416.922 0.5499999999999972
417.23 0.5999999999999979
417.537 0.5499999999999972
417.844 0.5499999999999972
418.151 0.6165999999999983
418.458 0.8999999999999986
418.768 0.5999999999999979
419.075 0.7165999999999997
419.382 0.7165999999999997
419.689 0.916599999999999
419.996 0.7332999999999998
420.303 0.8165999999999976
420.61 1.0665999999999976
420.918 0.9499999999999993
421.225 1.0665999999999976
421.532 1.1499999999999986
421.841 1.0999999999999979
422.148 1.0832999999999977
422.455 1.1165999999999983
422.762 1.2165999999999997
423.069 1.25
423.376 1.2665999999999968
423.683 1.1332999999999984
423.99 1.2165999999999997
424.297 1.283299999999997
424.604 1.2999999999999972
424.911 1.5499999999999972
425.218 1.1999999999999993
425.525 1.533299999999997
425.832 1.4499999999999993
426.139 1.2665999999999968
426.446 1.3665999999999983
426.753 1.2665999999999968
427.061 1.3332999999999977
427.368 1.166599999999999
427.675 1.1165999999999983
427.982 1.0165999999999968
428.289 1.033299999999997
428.596 1.1332999999999984
428.903 0.783299999999997
429.209 1.0665999999999976
429.516 0.9665999999999997
429.823 0.8665999999999983
430.13 0.8665999999999983
430.437 0.8499999999999979
430.743 0.7999999999999972
431.05 0.783299999999997
431.357 0.7332999999999998
431.664 0.7665999999999968
431.97 0.6999999999999993
432.277 0.8665999999999983
432.584 0.7165999999999997
432.891 0.6832999999999991
433.197 0.6332999999999984
433.504 0.8499999999999979
433.811 0.5665999999999976
434.117 0.5499999999999972
434.424 0.6499999999999986
434.731 0.6332999999999984
435.037 0.533299999999997
435.344 0.41659999999999897
435.65 0.5832999999999977
435.957 0.5
436.262 0.4665999999999997
436.568 0.5499999999999972
436.875 0.5
437.181 0.43329999999999913
437.488 0.6165999999999983
437.794 0.533299999999997
438.101 0.3832999999999984
438.407 0.533299999999997
438.714 0.3999999999999986
439.02 0.29999999999999716
439.327 0.43329999999999913
439.633 0.3332999999999977
439.94 0.4665999999999997
440.246 0.36659999999999826
440.553 0.43329999999999913
440.859 0.41659999999999897
441.163 0.3832999999999984
441.47 0.48329999999999984
441.776 0.3999999999999986
442.083 0.5165999999999968
442.389 0.41659999999999897
442.695 0.5165999999999968
443.002 0.4499999999999993
443.308 0.41659999999999897
443.614 0.34999999999999787
443.921 0.26659999999999684
444.225 0.41659999999999897
444.531 0.3832999999999984
444.838 0.41659999999999897
445.144 0.5499999999999972
445.45 0.41659999999999897
445.757 0.5499999999999972
446.063 0.36659999999999826
446.369 0.5
446.675 0.3332999999999977
446.979 0.4499999999999993
447.286 0.41659999999999897
447.592 0.36659999999999826
447.898 0.34999999999999787
448.204 0.5499999999999972
448.51 0.34999999999999787
448.817 0.3999999999999986
449.121 0.26659999999999684
449.427 0.3999999999999986
449.733 0.48329999999999984
450.039 0.4499999999999993
450.345 0.43329999999999913
450.651 0.4665999999999997
450.955 0.4499999999999993
451.261 0.5665999999999976
451.568 0.31659999999999755
451.874 0.43329999999999913
452.18 0.43329999999999913
452.486 0.29999999999999716
452.79 0.48329999999999984
453.096 0.48329999999999984
453.402 0.5165999999999968
453.708 0.34999999999999787
454.014 0.36659999999999826
454.318 0.41659999999999897
454.624 0.34999999999999787
454.93 0.3332999999999977
455.236 0.5165999999999968
455.541 0.4665999999999997
455.845 0.29999999999999716
456.151 0.43329999999999913
456.457 0.34999999999999787
456.763 0.4665999999999997
457.067 0.1999999999999993
457.373 0.36659999999999826
457.679 0.36659999999999826
457.985 0.34999999999999787
458.29 0.283299999999997
458.594 0.29999999999999716
458.9 0.36659999999999826
459.206 0.36659999999999826
459.512 0.3999999999999986
459.815 0.3332999999999977
460.121 0.3999999999999986
460.427 0.3999999999999986
460.733 0.29999999999999716
461.036 0.3332999999999977
461.342 0.36659999999999826
461.648 0.48329999999999984
461.954 0.31659999999999755
462.257 0.36659999999999826
462.563 0.3332999999999977
462.869 0.26659999999999684
463.172 0.4665999999999997
463.478 0.41659999999999897
463.784 0.3332999999999977
464.089 0.36659999999999826
464.393 0.283299999999997
464.699 0.43329999999999913
465.004 0.31659999999999755
465.308 0.43329999999999913
465.613 0.34999999999999787
465.919 0.23329999999999984
466.225 0.283299999999997
466.528 0.3999999999999986
466.834 0.3332999999999977
467.139 0.41659999999999897
467.443 0.3332999999999977
467.748 0.36659999999999826
468.054 0.3999999999999986
468.357 0.36659999999999826
468.663 0.34999999999999787
468.968 0.29999999999999716
469.272 0.3832999999999984
469.577 0.3999999999999986
469.883 0.29999999999999716
470.186 0.43329999999999913
470.492 0.3332999999999977
470.797 0.41659999999999897
471.1 0.43329999999999913
471.406 0.3332999999999977
471.711 0.4499999999999993
472.014 0.29999999999999716
472.32 0.5
472.625 0.3999999999999986
472.929 0.48329999999999984
473.234 0.48329999999999984
473.539 0.41659999999999897
473.843 0.34999999999999787
474.148 0.3332999999999977
474.451 0.5
474.756 0.533299999999997
475.062 0.3999999999999986
475.365 0.34999999999999787
475.67 0.34999999999999787
475.973 0.4665999999999997
476.279 0.41659999999999897
476.584 0.43329999999999913
476.887 0.5499999999999972
477.192 0.4665999999999997
477.498 0.6332999999999984
477.801 0.8165999999999976
478.106 0.783299999999997
478.409 0.6999999999999993
478.714 0.75
479.017 0.7665999999999968
479.322 0.75
479.628 0.9332999999999991
479.931 0.7999999999999972
480.236 0.7332999999999998
480.539 0.75
480.844 1.0
481.147 0.6832999999999991
481.452 0.666599999999999
481.757 0.7165999999999997
482.06 0.6999999999999993
482.365 0.5999999999999979
482.668 0.7665999999999968
482.973 0.8165999999999976
483.276 0.783299999999997
483.581 0.6165999999999983
483.884 0.6999999999999993
484.189 0.5999999999999979
484.494 0.6832999999999991
484.797 0.5832999999999977
485.102 0.533299999999997
485.405 0.48329999999999984
485.71 0.5832999999999977
486.013 0.5499999999999972
486.318 0.34999999999999787
486.621 0.41659999999999897
486.925 0.3332999999999977
487.228 0.34999999999999787
487.533 0.34999999999999787
487.836 0.41659999999999897
488.141 0.48329999999999984
488.444 0.283299999999997
488.748 0.4665999999999997
489.051 0.34999999999999787
489.356 0.4665999999999997
489.659 0.4499999999999993
489.964 0.283299999999997
490.266 0.3332999999999977
490.571 0.41659999999999897
490.874 0.34999999999999787
491.179 0.36659999999999826
491.481 0.31659999999999755
491.786 0.41659999999999897
492.089 0.4665999999999997
492.393 0.26659999999999684
492.696 0.36659999999999826
493.001 0.36659999999999826
493.303 0.283299999999997
493.606 0.26659999999999684
493.911 0.31659999999999755
494.213 0.4499999999999993
494.518 0.1999999999999993
494.821 0.3332999999999977
495.125 0.26659999999999684
495.428 0.25
495.732 0.3332999999999977
496.035 0.3332999999999977
496.337 0.29999999999999716
496.642 0.16659999999999897
496.945 0.26659999999999684
497.249 0.34999999999999787
497.552 0.3332999999999977
497.856 0.4499999999999993
498.159 0.3332999999999977
498.461 0.23329999999999984
498.766 0.3332999999999977
499.068 0.21659999999999968
499.372 0.4499999999999993
499.675 0.29999999999999716
499.977 0.3332999999999977
500.282 0.23329999999999984
500.584 0.3332999999999977
500.889 0.283299999999997
501.191 0.25
501.493 0.3999999999999986
501.798 0.29999999999999716
502.1 0.31659999999999755
502.402 0.25
502.707 0.283299999999997
503.009 0.3999999999999986
503.314 0.31659999999999755
503.616 0.29999999999999716
503.918 0.4665999999999997
504.222 0.26659999999999684
504.525 0.283299999999997
504.827 0.31659999999999755
505.131 0.1999999999999993
505.433 0.3332999999999977
505.736 0.25
506.04 0.34999999999999787
506.342 0.34999999999999787
506.646 0.26659999999999684
506.949 0.16659999999999897
507.251 0.25
507.555 0.3999999999999986
507.857 0.21659999999999968
508.159 0.29999999999999716
508.461 0.29999999999999716
508.766 0.29999999999999716
509.068 0.21659999999999968
509.37 0.25
509.674 0.41659999999999897
509.976 0.3332999999999977
510.278 0.23329999999999984
510.582 0.34999999999999787
510.884 0.21659999999999968
511.186 0.41659999999999897
511.49 0.36659999999999826
511.792 0.18329999999999913
512.094 0.29999999999999716
512.396 0.31659999999999755
512.701 0.25
513.003 0.29999999999999716
513.305 0.36659999999999826
513.609 0.31659999999999755
513.91 0.3332999999999977
514.212 0.34999999999999787
514.514 0.23329999999999984
514.818 0.3332999999999977
515.12 0.41659999999999897
515.422 0.34999999999999787
515.724 0.3832999999999984
516.028 0.283299999999997
516.33 0.283299999999997
516.632 0.3832999999999984
516.934 0.23329999999999984
517.237 0.34999999999999787
517.539 0.25
517.841 0.26659999999999684
518.143 0.3332999999999977
518.447 0.23329999999999984
518.749 0.34999999999999787
519.05 0.3332999999999977
519.352 0.283299999999997
519.656 0.36659999999999826
519.958 0.31659999999999755
520.26 0.3999999999999986
520.561 0.29999999999999716
520.863 0.283299999999997
521.167 0.36659999999999826
521.468 0.23329999999999984
521.77 0.36659999999999826
522.072 0.29999999999999716
522.376 0.41659999999999897
522.677 0.4499999999999993
522.979 0.5165999999999968
523.281 0.3832999999999984
523.582 0.3332999999999977
523.884 0.283299999999997
524.187 0.3332999999999977
524.489 0.31659999999999755
524.791 0.4665999999999997
525.092 0.41659999999999897
525.394 0.29999999999999716
525.697 0.36659999999999826
525.999 0.29999999999999716
526.301 0.3332999999999977
526.602 0.34999999999999787
526.904 0.41659999999999897
527.205 0.29999999999999716
527.507 0.43329999999999913
527.81 0.34999999999999787
528.112 0.29999999999999716
528.413 0.29999999999999716
528.715 0.34999999999999787
529.016 0.31659999999999755
529.318 0.5499999999999972
529.619 0.533299999999997
529.922 0.3332999999999977
530.224 0.25
530.525 0.283299999999997
530.827 0.36659999999999826
531.128 0.31659999999999755
531.429 0.3332999999999977
531.731 0.3332999999999977
532.032 0.36659999999999826
532.336 0.3332999999999977
532.637 0.29999999999999716
532.938 0.283299999999997
533.24 0.3999999999999986
533.541 0.41659999999999897
533.842 0.4499999999999993
534.143 0.29999999999999716
534.445 0.34999999999999787
534.746 0.34999999999999787
535.047 0.36659999999999826
535.351 0.36659999999999826
535.652 0.3999999999999986
535.953 0.3832999999999984
536.254 0.31659999999999755
536.555 0.36659999999999826
536.857 0.34999999999999787
537.158 0.43329999999999913
537.459 0.34999999999999787
537.76 0.43329999999999913
538.061 0.36659999999999826
538.362 0.3999999999999986
538.664 0.3832999999999984
538.965 0.36659999999999826
539.266 0.34999999999999787
539.567 0.3832999999999984
539.868 0.31659999999999755
540.169 0.36659999999999826
540.472 0.43329999999999913
540.773 0.3999999999999986
541.074 0.34999999999999787
541.375 0.41659999999999897
541.677 0.29999999999999716
541.978 0.283299999999997
542.279 0.29999999999999716
542.58 0.18329999999999913
542.881 0.31659999999999755
543.182 0.283299999999997
543.483 0.3832999999999984
543.784 0.36659999999999826
544.085 0.41659999999999897
544.385 0.3999999999999986
544.686 0.43329999999999913
544.987 0.23329999999999984
545.288 0.36659999999999826
545.589 0.34999999999999787
545.89 0.3332999999999977
546.191 0.31659999999999755
546.492 0.3332999999999977
546.793 0.41659999999999897
547.094 0.34999999999999787
547.394 0.4665999999999997
547.695 0.3332999999999977
547.996 0.41659999999999897
548.297 0.4665999999999997
548.596 0.3332999999999977
548.897 0.4499999999999993
549.197 0.5165999999999968
549.498 0.43329999999999913
549.799 0.3332999999999977
550.1 0.3999999999999986
550.4 0.36659999999999826
550.701 0.3832999999999984
551.002 0.48329999999999984
551.303 0.41659999999999897
551.603 0.5165999999999968
551.904 0.41659999999999897
552.205 0.41659999999999897
552.505 0.5832999999999977
552.806 0.3999999999999986
553.107 0.5
553.407 0.41659999999999897
553.706 0.5165999999999968
554.007 0.533299999999997
554.307 0.5499999999999972
554.608 0.5832999999999977
554.909 0.41659999999999897
555.209 0.5999999999999979
555.51 0.5
555.81 0.34999999999999787
556.111 0.5832999999999977
556.411 0.41659999999999897
556.71 0.533299999999997
557.01 0.5499999999999972
557.311 0.34999999999999787
557.612 0.5999999999999979
557.912 0.5999999999999979
558.213 0.48329999999999984
558.513 0.6499999999999986
558.813 0.41659999999999897
559.112 0.4499999999999993
559.412 0.5
559.713 0.4499999999999993
560.013 0.4665999999999997
560.314 0.43329999999999913
560.614 0.3999999999999986
560.914 0.4499999999999993
561.213 0.43329999999999913
561.513 0.3332999999999977
561.814 0.3332999999999977
562.114 0.5
562.414 0.31659999999999755
562.715 0.3332999999999977
563.015 0.3999999999999986
563.313 0.29999999999999716
563.614 0.29999999999999716
563.914 0.4665999999999997
564.214 0.36659999999999826
564.515 0.4499999999999993
564.813 0.43329999999999913
565.113 0.31659999999999755
565.413 0.4499999999999993
565.714 0.283299999999997
566.014 0.3832999999999984
566.312 0.26659999999999684
566.612 0.41659999999999897
566.912 0.34999999999999787
567.213 0.3832999999999984
567.513 0.533299999999997
567.811 0.3832999999999984
568.111 0.34999999999999787
568.411 0.31659999999999755
568.712 0.5
569.012 0.34999999999999787
569.31 0.41659999999999897
569.61 0.283299999999997
569.91 0.4665999999999997
570.21 0.36659999999999826
570.508 0.36659999999999826
570.808 0.29999999999999716
571.108 0.4499999999999993
571.408 0.25
571.706 0.41659999999999897
572.006 0.283299999999997
572.306 0.34999999999999787
572.607 0.48329999999999984
572.904 0.3832999999999984
573.204 0.4665999999999997
573.505 0.4499999999999993
573.805 0.29999999999999716
574.102 0.3832999999999984
574.402 0.3332999999999977
574.702 0.34999999999999787
575.002 0.3332999999999977
575.3 0.34999999999999787
575.6 0.43329999999999913
575.9 0.4665999999999997
576.198 0.36659999999999826
576.498 0.23329999999999984
576.798 0.31659999999999755
577.098 0.29999999999999716
577.395 0.41659999999999897
577.695 0.283299999999997
577.995 0.3332999999999977
578.293 0.3999999999999986
578.593 0.3999999999999986
578.893 0.1999999999999993
579.19 0.31659999999999755
579.49 0.34999999999999787
579.79 0.3832999999999984
580.088 0.36659999999999826
580.387 0.3999999999999986
580.687 0.41659999999999897
580.985 0.34999999999999787
581.285 0.26659999999999684
581.584 0.36659999999999826
581.882 0.31659999999999755
582.182 0.3999999999999986
582.482 0.283299999999997
582.779 0.34999999999999787
583.079 0.283299999999997
583.378 0.3332999999999977
583.676 0.34999999999999787
583.976 0.29999999999999716
584.275 0.34999999999999787
584.573 0.3832999999999984
584.873 0.3999999999999986
585.17 0.29999999999999716
585.47 0.31659999999999755
585.769 0.31659999999999755
586.067 0.3332999999999977
586.367 0.283299999999997
586.666 0.41659999999999897
586.964 0.34999999999999787
587.263 0.48329999999999984
587.561 0.23329999999999984
587.86 0.34999999999999787
588.16 0.4665999999999997
588.457 0.36659999999999826
588.757 0.3999999999999986
589.054 0.34999999999999787
589.354 0.26659999999999684
589.653 0.25
589.951 0.36659999999999826
590.25 0.48329999999999984
590.547 0.29999999999999716
590.847 0.21659999999999968
591.144 0.36659999999999826
591.444 0.283299999999997
591.743 0.29999999999999716
592.04 0.3832999999999984
592.34 0.34999999999999787
592.637 0.26659999999999684
592.936 0.3332999999999977
593.234 0.3832999999999984
593.533 0.3332999999999977
593.832 0.36659999999999826
594.13 0.3999999999999986
594.429 0.36659999999999826
594.726 0.3832999999999984
595.026 0.3332999999999977
595.323 0.41659999999999897
595.622 0.34999999999999787
595.919 0.3832999999999984
596.219 0.36659999999999826
596.516 0.31659999999999755
596.815 0.4499999999999993
597.112 0.36659999999999826
597.411 0.26659999999999684
597.709 0.34999999999999787
598.008 0.41659999999999897
598.305 0.4665999999999997
598.604 0.31659999999999755
598.901 0.36659999999999826
599.2 0.3999999999999986
599.497 0.43329999999999913
599.797 0.31659999999999755
600.094 0.29999999999999716
600.393 0.36659999999999826
600.69 0.3832999999999984
600.989 0.18329999999999913
601.286 0.3999999999999986
601.585 0.31659999999999755
601.882 0.25
602.181 0.41659999999999897
602.478 0.3832999999999984
602.777 0.31659999999999755
603.074 0.31659999999999755
603.373 0.4499999999999993
603.67 0.3832999999999984
603.969 0.43329999999999913
604.266 0.3832999999999984
604.563 0.29999999999999716
604.862 0.3832999999999984
605.159 0.43329999999999913
605.458 0.41659999999999897
605.755 0.31659999999999755
606.054 0.36659999999999826
606.351 0.34999999999999787
606.65 0.36659999999999826
606.946 0.41659999999999897
607.243 0.36659999999999826
607.542 0.5499999999999972
607.839 0.3832999999999984
608.138 0.43329999999999913
608.435 0.31659999999999755
608.732 0.4499999999999993
609.03 0.4665999999999997
609.327 0.4499999999999993
609.626 0.4499999999999993
609.923 0.4665999999999997
610.22 0.5999999999999979
610.518 0.3999999999999986
610.815 0.48329999999999984
611.114 0.5165999999999968
611.411 0.43329999999999913
611.707 0.48329999999999984
612.006 0.5165999999999968
612.303 0.5
612.601 0.533299999999997
612.898 0.5165999999999968
613.195 0.5665999999999976
613.493 0.48329999999999984
613.79 0.5665999999999976
614.087 0.5999999999999979
614.385 0.34999999999999787
614.682 0.533299999999997
614.979 0.5165999999999968
615.277 0.5
615.574 0.36659999999999826
615.87 0.4665999999999997
616.169 0.4499999999999993
616.466 0.34999999999999787
616.764 0.36659999999999826
617.061 0.3832999999999984
617.357 0.41659999999999897
617.656 0.3832999999999984
617.952 0.3832999999999984
618.249 0.41659999999999897
618.545 0.23329999999999984
618.844 0.34999999999999787
619.14 0.5499999999999972
619.437 0.29999999999999716
619.735 0.3999999999999986
620.032 0.34999999999999787
620.328 0.41659999999999897
620.626 0.41659999999999897
620.923 0.3832999999999984
621.219 0.43329999999999913
621.518 0.48329999999999984
621.814 0.34999999999999787
622.11 0.29999999999999716
622.407 0.3832999999999984
622.705 0.283299999999997
623.002 0.34999999999999787
623.298 0.29999999999999716
623.594 0.283299999999997
623.893 0.31659999999999755
624.189 0.3332999999999977
624.485 0.3332999999999977
624.784 0.36659999999999826
625.08 0.4499999999999993
625.376 0.36659999999999826
625.672 0.4499999999999993
625.971 0.26659999999999684
626.267 0.283299999999997
626.563 0.26659999999999684
626.859 0.283299999999997
627.158 0.41659999999999897
627.454 0.31659999999999755
627.75 0.3832999999999984
628.046 0.36659999999999826
628.342 0.3832999999999984
628.641 0.36659999999999826
628.937 0.25
629.233 0.5
629.529 0.3999999999999986
629.827 0.23329999999999984
630.123 0.29999999999999716
630.419 0.283299999999997
630.715 0.41659999999999897
631.011 0.48329999999999984
631.31 0.36659999999999826
631.606 0.43329999999999913
631.902 0.29999999999999716
632.198 0.4665999999999997
632.494 0.34999999999999787
632.792 0.3999999999999986
633.088 0.34999999999999787
633.384 0.41659999999999897
633.68 0.4499999999999993
633.976 0.36659999999999826
634.272 0.36659999999999826
634.57 0.31659999999999755
634.866 0.3332999999999977
635.162 0.31659999999999755
635.458 0.31659999999999755
635.754 0.4665999999999997
636.05 0.34999999999999787
636.347 0.3999999999999986
636.643 0.3332999999999977
636.939 0.26659999999999684
637.235 0.36659999999999826
637.531 0.26659999999999684
637.827 0.34999999999999787
638.123 0.5
638.421 0.36659999999999826
638.716 0.41659999999999897
639.012 0.31659999999999755
639.308 0.25
639.604 0.36659999999999826
639.9 0.3999999999999986
640.195 0.3999999999999986
640.491 0.43329999999999913
640.789 0.21659999999999968
641.085 0.3832999999999984
641.381 0.31659999999999755
641.676 0.34999999999999787
641.972 0.5
642.268 0.283299999999997
642.563 0.36659999999999826
642.859 0.36659999999999826
643.155 0.36659999999999826
643.451 0.23329999999999984
643.746 0.3832999999999984
644.044 0.29999999999999716
644.34 0.3332999999999977
644.635 0.31659999999999755
644.931 0.29999999999999716
645.227 0.283299999999997
645.522 0.3332999999999977
645.818 0.4665999999999997
646.113 0.26659999999999684
646.409 0.41659999999999897
646.704 0.283299999999997
647.0 0.43329999999999913
647.296 0.3832999999999984
647.591 0.4665999999999997
647.887 0.34999999999999787
648.182 0.36659999999999826
648.478 0.41659999999999897
648.773 0.26659999999999684
649.069 0.3332999999999977
649.366 0.29999999999999716
649.662 0.29999999999999716
649.957 0.4665999999999997
650.253 0.3332999999999977
650.548 0.41659999999999897
650.844 0.43329999999999913
651.139 0.36659999999999826
651.434 0.31659999999999755
651.73 0.3999999999999986
652.025 0.43329999999999913
652.321 0.3832999999999984
652.616 0.3832999999999984
652.911 0.3832999999999984
653.207 0.36659999999999826
653.502 0.3332999999999977
653.797 0.3832999999999984
654.093 0.43329999999999913
654.388 0.4665999999999997
654.683 0.3999999999999986
654.979 0.5165999999999968
655.274 0.4665999999999997
655.567 0.41659999999999897
655.863 0.41659999999999897
656.158 0.43329999999999913
656.453 0.48329999999999984
656.748 0.4499999999999993
657.044 0.533299999999997
657.339 0.41659999999999897
657.634 0.6165999999999983
657.929 0.666599999999999
658.224 0.4499999999999993
658.52 0.5999999999999979
658.815 0.6999999999999993
659.11 0.6332999999999984
659.405 0.6832999999999991
659.7 0.5832999999999977
659.995 0.666599999999999
660.291 0.5832999999999977
660.586 0.5665999999999976
660.879 0.6165999999999983
661.174 0.5832999999999977
661.469 0.7165999999999997
661.764 0.6832999999999991
662.059 0.5832999999999977
662.354 0.7332999999999998
662.649 0.5165999999999968
662.944 0.7165999999999997
663.239 0.4499999999999993
663.534 0.6165999999999983
663.83 0.5499999999999972
664.122 0.5
664.417 0.4499999999999993
664.713 0.5665999999999976
665.008 0.5
665.302 0.5832999999999977
665.597 0.533299999999997
665.892 0.6332999999999984
666.187 0.5165999999999968
666.48 0.3832999999999984
666.775 0.5
667.07 0.4665999999999997
667.365 0.533299999999997
667.66 0.36659999999999826
667.955 0.34999999999999787
668.25 0.5665999999999976
668.542 0.5665999999999976
668.837 0.3999999999999986
669.132 0.3999999999999986
669.427 0.5832999999999977
669.722 0.41659999999999897
670.017 0.43329999999999913
670.31 0.4665999999999997
670.604 0.5165999999999968
670.899 0.34999999999999787
671.194 0.3832999999999984
671.489 0.4499999999999993
671.783 0.4665999999999997
672.076 0.3332999999999977
672.371 0.21659999999999968
672.666 0.4499999999999993
672.96 0.3332999999999977
673.255 0.4665999999999997
673.548 0.31659999999999755
673.842 0.3332999999999977
674.137 0.36659999999999826
674.432 0.31659999999999755
674.727 0.34999999999999787
675.019 0.41659999999999897
675.314 0.5999999999999979
675.608 0.29999999999999716
675.903 0.5
676.196 0.3999999999999986
676.49 0.283299999999997
676.785 0.48329999999999984
677.079 0.43329999999999913
677.374 0.29999999999999716
677.667 0.3832999999999984
677.961 0.3999999999999986
678.256 0.3999999999999986
678.55 0.3999999999999986
678.843 0.3332999999999977
679.137 0.3832999999999984
679.432 0.48329999999999984
679.726 0.31659999999999755
680.019 0.18329999999999913
680.313 0.283299999999997
680.608 0.34999999999999787
680.902 0.34999999999999787
681.195 0.4499999999999993
681.489 0.3832999999999984
681.784 0.3999999999999986
682.076 0.36659999999999826
682.37 0.3332999999999977
682.665 0.43329999999999913
682.959 0.34999999999999787
683.252 0.36659999999999826
683.546 0.41659999999999897
683.84 0.48329999999999984
684.133 0.4665999999999997
684.427 0.3332999999999977
684.721 0.25
685.014 0.34999999999999787
685.308 0.31659999999999755
685.602 0.3332999999999977
685.895 0.283299999999997
686.189 0.3832999999999984
686.483 0.29999999999999716
686.778 0.43329999999999913
687.07 0.21659999999999968
687.364 0.29999999999999716
687.658 0.29999999999999716
687.951 0.5
688.245 0.36659999999999826
688.537 0.4665999999999997
688.831 0.3332999999999977
689.125 0.283299999999997
689.418 0.3832999999999984
689.712 0.3999999999999986
690.006 0.4499999999999993
690.298 0.34999999999999787
690.592 0.5165999999999968
690.886 0.31659999999999755
691.178 0.3332999999999977
691.473 0.3332999999999977
691.767 0.26659999999999684
692.059 0.29999999999999716
692.353 0.31659999999999755
692.645 0.36659999999999826
692.939 0.3332999999999977
693.233 0.36659999999999826
693.525 0.29999999999999716
693.819 0.34999999999999787
694.111 0.3999999999999986
694.405 0.3832999999999984
694.699 0.4665999999999997
694.991 0.34999999999999787
695.285 0.3832999999999984
695.577 0.4499999999999993
695.871 0.41659999999999897
696.165 0.3332999999999977
696.457 0.3832999999999984
696.751 0.29999999999999716
697.043 0.41659999999999897
697.337 0.34999999999999787
697.629 0.26659999999999684
697.923 0.4499999999999993
698.217 0.29999999999999716
698.509 0.26659999999999684
698.802 0.29999999999999716
699.094 0.29999999999999716
699.388 0.34999999999999787
699.68 0.3332999999999977
699.974 0.4499999999999993
700.266 0.3999999999999986
700.56 0.29999999999999716
700.853 0.34999999999999787
701.145 0.36659999999999826
701.439 0.3999999999999986
701.731 0.29999999999999716
702.025 0.4499999999999993
702.316 0.43329999999999913
702.61 0.26659999999999684
702.902 0.31659999999999755
703.196 0.5
703.487 0.29999999999999716
703.781 0.3999999999999986
704.073 0.29999999999999716
704.367 0.283299999999997
704.658 0.26659999999999684
704.952 0.29999999999999716
705.244 0.4665999999999997
705.537 0.3332999999999977
705.829 0.3332999999999977
706.122 0.3999999999999986
706.414 0.31659999999999755
706.708 0.36659999999999826
706.999 0.34999999999999787
707.293 0.29999999999999716
