# Created: 2019-11-28 13:05:43.125838
# rshift intensity
76.1738 0.26670000000000016
76.4989 0.23329999999999984
76.824 0.31670000000000087
77.1491 0.16669999999999874
77.4721 0.16669999999999874
77.7972 0.3000000000000007
78.1223 0.16669999999999874
78.4474 0.3000000000000007
78.7724 0.23329999999999984
79.0975 0.23329999999999984
79.4204 0.13329999999999842
79.7454 0.13329999999999842
80.0704 0.28330000000000055
80.3954 0.11669999999999803
80.7204 0.13329999999999842
81.0454 0.21669999999999945
81.3682 0.14999999999999858
81.6931 0.21669999999999945
82.0181 0.09999999999999787
82.343 0.11669999999999803
82.6679 0.18329999999999913
82.9907 0.08329999999999771
83.3156 0.1999999999999993
83.6405 0.13329999999999842
83.9654 0.16669999999999874
84.2903 0.13329999999999842
84.613 0.16669999999999874
84.9378 0.13329999999999842
85.2626 0.16669999999999874
85.5875 0.21669999999999945
85.9101 0.23329999999999984
86.2349 0.13329999999999842
86.5597 0.14999999999999858
86.8845 0.1999999999999993
87.2093 0.1999999999999993
87.5319 0.1999999999999993
87.8566 0.06670000000000087
88.1814 0.11669999999999803
88.5061 0.25
88.8286 0.18329999999999913
89.1533 0.11669999999999803
89.478 0.21669999999999945
89.8027 0.1999999999999993
90.1252 0.14999999999999858
90.4499 0.23329999999999984
90.7745 0.13329999999999842
91.0992 0.1999999999999993
91.4216 0.18329999999999913
91.7462 0.14999999999999858
92.0708 0.14999999999999858
92.3954 0.18329999999999913
92.7179 0.1999999999999993
93.0424 0.18329999999999913
93.367 0.16669999999999874
93.6915 0.25
94.0139 0.13329999999999842
94.3384 0.11669999999999803
94.6629 0.26670000000000016
94.9853 0.14999999999999858
95.3098 0.23329999999999984
95.6342 0.14999999999999858
95.9587 0.25
96.281 0.11669999999999803
96.6055 0.16669999999999874
96.9299 0.3332999999999977
97.2522 0.13329999999999842
97.5766 0.13329999999999842
97.901 0.09999999999999787
98.2232 0.16669999999999874
98.5476 0.16669999999999874
98.8719 0.11669999999999803
99.1942 0.3000000000000007
99.5185 0.16669999999999874
99.8428 0.11669999999999803
100.165 0.23329999999999984
100.489 0.1999999999999993
100.814 0.18329999999999913
101.136 0.1999999999999993
101.46 0.21669999999999945
101.784 0.13329999999999842
102.106 0.21669999999999945
102.431 0.1999999999999993
102.755 0.21669999999999945
103.077 0.21669999999999945
103.401 0.21669999999999945
103.725 0.21669999999999945
104.047 0.21669999999999945
104.372 0.1999999999999993
104.696 0.13329999999999842
105.018 0.18329999999999913
105.342 0.1999999999999993
105.666 0.25
105.988 0.23329999999999984
106.312 0.23329999999999984
106.634 0.21669999999999945
106.958 0.16669999999999874
107.282 0.26670000000000016
107.604 0.23329999999999984
107.928 0.23329999999999984
108.252 0.23329999999999984
108.574 0.21669999999999945
108.898 0.14999999999999858
109.22 0.21669999999999945
109.544 0.11669999999999803
109.868 0.26670000000000016
110.19 0.21669999999999945
110.514 0.25
110.836 0.18329999999999913
111.159 0.21669999999999945
111.483 0.06670000000000087
111.805 0.16669999999999874
112.129 0.16669999999999874
112.451 0.08329999999999771
112.775 0.21669999999999945
113.096 0.31670000000000087
113.42 0.14999999999999858
113.744 0.11669999999999803
114.066 0.23329999999999984
114.39 0.14999999999999858
114.711 0.23329999999999984
115.035 0.3000000000000007
115.357 0.21669999999999945
115.681 0.06670000000000087
116.004 0.08329999999999771
116.326 0.18329999999999913
116.65 0.13329999999999842
116.971 0.21669999999999945
117.295 0.13329999999999842
117.617 0.1999999999999993
117.94 0.16669999999999874
118.262 0.14999999999999858
118.586 0.21669999999999945
118.907 0.14999999999999858
119.231 0.21669999999999945
119.554 0.16669999999999874
119.876 0.14999999999999858
120.199 0.34999999999999787
120.521 0.21669999999999945
120.845 0.14999999999999858
121.166 0.23329999999999984
121.49 0.21669999999999945
121.811 0.28330000000000055
122.135 0.09999999999999787
122.456 0.3332999999999977
122.78 0.25
123.101 0.14999999999999858
123.424 0.25
123.746 0.21669999999999945
124.069 0.1999999999999993
124.391 0.14999999999999858
124.714 0.23329999999999984
125.035 0.28330000000000055
125.359 0.25
125.68 0.26670000000000016
126.004 0.11669999999999803
126.325 0.23329999999999984
126.648 0.14999999999999858
126.97 0.16669999999999874
127.291 0.18329999999999913
127.614 0.08329999999999771
127.935 0.1999999999999993
128.259 0.16669999999999874
128.58 0.16669999999999874
128.903 0.21669999999999945
129.224 0.18329999999999913
129.548 0.25
129.869 0.18329999999999913
130.192 0.23329999999999984
130.513 0.25
130.834 0.1999999999999993
131.158 0.1999999999999993
131.479 0.28330000000000055
131.802 0.23329999999999984
132.123 0.26670000000000016
132.446 0.23329999999999984
132.767 0.23329999999999984
133.09 0.28330000000000055
133.411 0.21669999999999945
133.733 0.1999999999999993
134.056 0.18329999999999913
134.377 0.21669999999999945
134.7 0.23329999999999984
135.021 0.21669999999999945
135.342 0.14999999999999858
135.665 0.13329999999999842
135.986 0.16669999999999874
136.309 0.16669999999999874
136.63 0.16669999999999874
136.951 0.23329999999999984
137.274 0.11669999999999803
137.595 0.1999999999999993
137.918 0.14999999999999858
138.238 0.16669999999999874
138.559 0.25
138.882 0.1999999999999993
139.203 0.28330000000000055
139.526 0.21669999999999945
139.847 0.28330000000000055
140.168 0.21669999999999945
140.491 0.1999999999999993
140.811 0.1999999999999993
141.132 0.16669999999999874
141.455 0.1999999999999993
141.776 0.28330000000000055
142.097 0.11669999999999803
142.419 0.18329999999999913
142.74 0.16669999999999874
143.061 0.18329999999999913
143.384 0.13329999999999842
143.704 0.23329999999999984
144.027 0.18329999999999913
144.348 0.25
144.668 0.18329999999999913
144.991 0.28330000000000055
145.312 0.13329999999999842
145.632 0.16669999999999874
145.955 0.18329999999999913
146.276 0.23329999999999984
146.596 0.18329999999999913
146.917 0.26670000000000016
147.24 0.1999999999999993
147.56 0.23329999999999984
147.881 0.21669999999999945
148.203 0.11669999999999803
148.524 0.16669999999999874
148.844 0.16669999999999874
149.167 0.16669999999999874
149.487 0.28330000000000055
149.808 0.25
150.131 0.14999999999999858
150.451 0.1999999999999993
150.771 0.1999999999999993
151.092 0.25
151.414 0.1999999999999993
151.735 0.25
152.055 0.26670000000000016
152.378 0.25
152.698 0.1999999999999993
153.018 0.21669999999999945
153.339 0.26670000000000016
153.661 0.1999999999999993
153.982 0.21669999999999945
154.302 0.1999999999999993
154.622 0.16669999999999874
154.945 0.18329999999999913
155.265 0.16669999999999874
155.585 0.08329999999999771
155.905 0.1999999999999993
156.228 0.16669999999999874
156.548 0.18329999999999913
156.868 0.26670000000000016
157.188 0.1999999999999993
157.511 0.25
157.831 0.18329999999999913
158.151 0.25
158.471 0.16669999999999874
158.794 0.25
159.114 0.21669999999999945
159.434 0.18329999999999913
159.754 0.16669999999999874
160.074 0.26670000000000016
160.396 0.18329999999999913
160.717 0.18329999999999913
161.037 0.25
161.357 0.21669999999999945
161.679 0.25
161.999 0.16669999999999874
162.319 0.21669999999999945
162.639 0.16669999999999874
162.959 0.23329999999999984
163.281 0.25
163.601 0.18329999999999913
163.921 0.25
164.241 0.21669999999999945
164.561 0.26670000000000016
164.881 0.18329999999999913
165.203 0.23329999999999984
165.523 0.23329999999999984
165.843 0.28330000000000055
166.163 0.26670000000000016
166.483 0.3000000000000007
166.803 0.25
167.125 0.25
167.445 0.14999999999999858
167.764 0.26670000000000016
168.084 0.16669999999999874
168.404 0.28330000000000055
168.724 0.3332999999999977
169.046 0.14999999999999858
169.366 0.25
169.685 0.28330000000000055
170.005 0.23329999999999984
170.325 0.21669999999999945
170.645 0.26670000000000016
170.964 0.31670000000000087
171.286 0.23329999999999984
171.606 0.21669999999999945
171.926 0.21669999999999945
172.245 0.1999999999999993
172.565 0.1999999999999993
172.885 0.13329999999999842
173.204 0.16669999999999874
173.524 0.21669999999999945
173.846 0.1999999999999993
174.166 0.23329999999999984
174.485 0.21669999999999945
174.805 0.25
175.124 0.25
175.444 0.26670000000000016
175.764 0.26670000000000016
176.083 0.18329999999999913
176.403 0.16669999999999874
176.722 0.28330000000000055
177.044 0.21669999999999945
177.363 0.23329999999999984
177.683 0.1999999999999993
178.002 0.3000000000000007
178.322 0.1999999999999993
178.641 0.1999999999999993
178.961 0.26670000000000016
179.28 0.21669999999999945
179.6 0.26670000000000016
179.919 0.08329999999999771
180.239 0.14999999999999858
180.558 0.23329999999999984
180.877 0.09999999999999787
181.197 0.31670000000000087
181.516 0.23329999999999984
181.838 0.1999999999999993
182.157 0.23329999999999984
182.476 0.1999999999999993
182.796 0.1999999999999993
183.115 0.14999999999999858
183.434 0.25
183.754 0.13329999999999842
184.073 0.1999999999999993
184.392 0.1999999999999993
184.712 0.14999999999999858
185.031 0.26670000000000016
185.35 0.28330000000000055
185.669 0.1999999999999993
185.989 0.14999999999999858
186.308 0.21669999999999945
186.627 0.21669999999999945
186.946 0.16669999999999874
187.265 0.1999999999999993
187.585 0.16669999999999874
187.904 0.11669999999999803
188.223 0.28330000000000055
188.542 0.23329999999999984
188.861 0.0
189.18 0.26670000000000016
189.499 0.14999999999999858
189.818 0.23329999999999984
190.138 0.31670000000000087
190.457 0.23329999999999984
190.776 0.25
191.095 0.3000000000000007
191.414 0.21669999999999945
191.733 0.13329999999999842
192.052 0.14999999999999858
192.371 0.1999999999999993
192.69 0.25
193.009 0.14999999999999858
193.328 0.23329999999999984
193.647 0.1999999999999993
193.966 0.21669999999999945
194.285 0.21669999999999945
194.602 0.14999999999999858
194.92 0.3000000000000007
195.239 0.21669999999999945
195.558 0.11669999999999803
195.877 0.28330000000000055
196.196 0.3000000000000007
196.515 0.18329999999999913
196.834 0.1999999999999993
197.153 0.23329999999999984
197.471 0.18329999999999913
197.79 0.3000000000000007
198.109 0.21669999999999945
198.428 0.25
198.747 0.25
199.065 0.23329999999999984
199.382 0.28330000000000055
199.701 0.1999999999999993
200.02 0.26670000000000016
200.338 0.08329999999999771
200.657 0.18329999999999913
200.976 0.1999999999999993
201.295 0.25
201.613 0.1999999999999993
201.932 0.25
202.251 0.18329999999999913
202.567 0.21669999999999945
202.886 0.26670000000000016
203.204 0.23329999999999984
203.523 0.1999999999999993
203.842 0.16669999999999874
204.16 0.1999999999999993
204.479 0.1999999999999993
204.797 0.21669999999999945
205.114 0.26670000000000016
205.433 0.14999999999999858
205.751 0.3000000000000007
206.07 0.11669999999999803
206.388 0.3332999999999977
206.707 0.26670000000000016
207.025 0.23329999999999984
207.342 0.25
207.66 0.23329999999999984
207.979 0.11669999999999803
208.297 0.23329999999999984
208.615 0.21669999999999945
208.934 0.26670000000000016
209.25 0.21669999999999945
209.569 0.3332999999999977
209.887 0.1999999999999993
210.205 0.18329999999999913
210.524 0.16669999999999874
210.842 0.16669999999999874
211.158 0.3000000000000007
211.477 0.26670000000000016
211.795 0.26670000000000016
212.113 0.26670000000000016
212.432 0.23329999999999984
212.75 0.1999999999999993
213.066 0.18329999999999913
213.385 0.3000000000000007
213.703 0.1999999999999993
214.021 0.28330000000000055
214.339 0.23329999999999984
214.656 0.26670000000000016
214.974 0.16669999999999874
215.292 0.23329999999999984
215.61 0.26670000000000016
215.926 0.31670000000000087
216.245 0.25
216.563 0.1999999999999993
216.881 0.31670000000000087
217.199 0.1999999999999993
217.515 0.21669999999999945
217.833 0.3999999999999986
218.151 0.21669999999999945
218.469 0.34999999999999787
218.785 0.1999999999999993
219.104 0.1999999999999993
219.422 0.23329999999999984
219.74 0.28330000000000055
220.056 0.23329999999999984
220.374 0.1999999999999993
220.692 0.21669999999999945
221.01 0.3332999999999977
221.326 0.23329999999999984
221.644 0.14999999999999858
221.962 0.18329999999999913
222.28 0.21669999999999945
222.596 0.1999999999999993
222.914 0.3832999999999984
223.232 0.23329999999999984
223.547 0.18329999999999913
223.865 0.31670000000000087
224.183 0.21669999999999945
224.501 0.3332999999999977
224.817 0.3999999999999986
225.135 0.21669999999999945
225.453 0.25
225.768 0.26670000000000016
226.086 0.366699999999998
226.404 0.3000000000000007
226.722 0.25
227.038 0.3000000000000007
227.355 0.26670000000000016
227.673 0.18329999999999913
227.989 0.1999999999999993
228.307 0.25
228.625 0.3000000000000007
228.94 0.21669999999999945
229.258 0.34999999999999787
229.576 0.25
229.891 0.3332999999999977
230.209 0.1999999999999993
230.527 0.1999999999999993
230.842 0.26670000000000016
231.16 0.14999999999999858
231.478 0.21669999999999945
231.793 0.21669999999999945
232.111 0.3000000000000007
232.428 0.34999999999999787
232.744 0.26670000000000016
233.062 0.34999999999999787
233.379 0.25
233.695 0.25
234.012 0.26670000000000016
234.33 0.18329999999999913
234.645 0.23329999999999984
234.963 0.34999999999999787
235.278 0.1999999999999993
235.596 0.23329999999999984
235.913 0.21669999999999945
236.229 0.25
236.546 0.26670000000000016
236.864 0.3000000000000007
237.179 0.3332999999999977
237.497 0.31670000000000087
237.812 0.1999999999999993
238.129 0.23329999999999984
238.447 0.26670000000000016
238.762 0.25
239.08 0.26670000000000016
239.395 0.34999999999999787
239.712 0.28330000000000055
240.03 0.21669999999999945
240.345 0.3000000000000007
240.662 0.18329999999999913
240.978 0.366699999999998
241.295 0.28330000000000055
241.61 0.23329999999999984
241.927 0.28330000000000055
242.245 0.25
242.56 0.31670000000000087
242.877 0.25
243.192 0.3000000000000007
243.51 0.23329999999999984
243.825 0.18329999999999913
244.142 0.3000000000000007
244.459 0.18329999999999913
244.774 0.28330000000000055
245.092 0.25
245.407 0.21669999999999945
245.724 0.28330000000000055
246.039 0.23329999999999984
246.356 0.3000000000000007
246.671 0.28330000000000055
246.988 0.1999999999999993
247.303 0.3000000000000007
247.62 0.1999999999999993
247.938 0.3000000000000007
248.253 0.25
248.57 0.21669999999999945
248.885 0.26670000000000016
249.202 0.26670000000000016
249.517 0.28330000000000055
249.834 0.3000000000000007
250.149 0.25
250.466 0.3332999999999977
250.781 0.1999999999999993
251.098 0.16669999999999874
251.412 0.3332999999999977
251.729 0.1999999999999993
252.044 0.3000000000000007
252.361 0.23329999999999984
252.676 0.34999999999999787
252.993 0.3000000000000007
253.308 0.3000000000000007
253.625 0.3332999999999977
253.94 0.25
254.256 0.34999999999999787
254.571 0.1999999999999993
254.888 0.3332999999999977
255.203 0.28330000000000055
255.518 0.28330000000000055
255.834 0.366699999999998
256.149 0.31670000000000087
256.466 0.21669999999999945
256.781 0.26670000000000016
257.097 0.21669999999999945
257.412 0.3000000000000007
257.729 0.18329999999999913
258.044 0.34999999999999787
258.36 0.366699999999998
258.675 0.3000000000000007
258.99 0.25
259.306 0.366699999999998
259.621 0.26670000000000016
259.938 0.31670000000000087
260.252 0.1999999999999993
260.569 0.26670000000000016
260.883 0.3332999999999977
261.198 0.23329999999999984
261.515 0.3332999999999977
261.829 0.23329999999999984
262.146 0.28330000000000055
262.46 0.23329999999999984
262.775 0.16669999999999874
263.091 0.1999999999999993
263.406 0.31670000000000087
263.723 0.23329999999999984
264.037 0.23329999999999984
264.354 0.28330000000000055
264.668 0.23329999999999984
264.982 0.1999999999999993
265.299 0.31670000000000087
265.613 0.26670000000000016
265.928 0.1999999999999993
266.244 0.3332999999999977
266.559 0.16669999999999874
266.875 0.21669999999999945
267.189 0.28330000000000055
267.504 0.34999999999999787
267.82 0.21669999999999945
268.134 0.16669999999999874
268.449 0.25
268.765 0.18329999999999913
269.079 0.26670000000000016
269.394 0.23329999999999984
269.71 0.16669999999999874
270.024 0.26670000000000016
270.341 0.23329999999999984
270.655 0.18329999999999913
270.969 0.23329999999999984
271.286 0.1999999999999993
271.6 0.26670000000000016
271.914 0.3000000000000007
272.23 0.26670000000000016
272.544 0.21669999999999945
272.859 0.26670000000000016
273.175 0.28330000000000055
273.489 0.26670000000000016
273.803 0.31670000000000087
274.119 0.23329999999999984
274.433 0.21669999999999945
274.747 0.1999999999999993
275.062 0.23329999999999984
275.378 0.23329999999999984
275.692 0.26670000000000016
276.006 0.34999999999999787
276.322 0.31670000000000087
276.636 0.3000000000000007
276.95 0.3000000000000007
277.266 0.14999999999999858
277.58 0.366699999999998
277.894 0.21669999999999945
278.208 0.21669999999999945
278.524 0.25
278.838 0.3000000000000007
279.152 0.41669999999999874
279.468 0.34999999999999787
279.782 0.14999999999999858
280.096 0.3332999999999977
280.41 0.1999999999999993
280.726 0.3000000000000007
281.04 0.34999999999999787
281.354 0.26670000000000016
281.668 0.25
281.983 0.28330000000000055
282.297 0.28330000000000055
282.611 0.28330000000000055
282.925 0.3332999999999977
283.241 0.28330000000000055
283.555 0.26670000000000016
283.868 0.26670000000000016
284.182 0.25
284.498 0.3000000000000007
284.812 0.26670000000000016
285.126 0.25
285.439 0.26670000000000016
285.753 0.31670000000000087
286.069 0.26670000000000016
286.383 0.26670000000000016
286.696 0.21669999999999945
287.01 0.23329999999999984
287.326 0.34999999999999787
287.639 0.18329999999999913
287.953 0.28330000000000055
288.267 0.3332999999999977
288.58 0.34999999999999787
288.896 0.3000000000000007
289.21 0.1999999999999993
289.523 0.23329999999999984
289.837 0.31670000000000087
290.15 0.3000000000000007
290.466 0.1999999999999993
290.78 0.21669999999999945
291.093 0.3000000000000007
291.407 0.23329999999999984
291.72 0.31670000000000087
292.034 0.21669999999999945
292.349 0.31670000000000087
292.663 0.23329999999999984
292.976 0.25
293.29 0.3332999999999977
293.603 0.28330000000000055
293.917 0.3832999999999984
294.232 0.34999999999999787
294.546 0.23329999999999984
294.859 0.26670000000000016
295.172 0.25
295.486 0.28330000000000055
295.799 0.26670000000000016
296.113 0.23329999999999984
296.428 0.31670000000000087
296.741 0.28330000000000055
297.055 0.26670000000000016
297.368 0.3000000000000007
297.681 0.23329999999999984
297.995 0.3332999999999977
298.308 0.23329999999999984
298.621 0.31670000000000087
298.937 0.31670000000000087
299.25 0.3332999999999977
299.563 0.25
299.876 0.3000000000000007
300.19 0.26670000000000016
300.503 0.3332999999999977
300.816 0.26670000000000016
301.129 0.23329999999999984
301.442 0.28330000000000055
301.756 0.366699999999998
302.071 0.26670000000000016
302.384 0.3000000000000007
302.697 0.26670000000000016
303.01 0.1999999999999993
303.323 0.21669999999999945
303.637 0.25
303.95 0.1999999999999993
304.263 0.3000000000000007
304.576 0.28330000000000055
304.889 0.3332999999999977
305.202 0.25
305.515 0.21669999999999945
305.828 0.31670000000000087
306.141 0.26670000000000016
306.456 0.28330000000000055
306.769 0.21669999999999945
307.082 0.31670000000000087
307.395 0.21669999999999945
307.708 0.28330000000000055
308.021 0.25
308.334 0.25
308.647 0.23329999999999984
308.96 0.23329999999999984
309.273 0.23329999999999984
309.586 0.3000000000000007
309.899 0.16669999999999874
310.212 0.4499999999999993
310.525 0.21669999999999945
310.838 0.31670000000000087
311.15 0.25
311.463 0.31670000000000087
311.776 0.23329999999999984
312.089 0.1999999999999993
312.402 0.3000000000000007
312.715 0.3332999999999977
313.027 0.14999999999999858
313.34 0.3000000000000007
313.653 0.3332999999999977
313.966 0.1999999999999993
314.278 0.1999999999999993
314.591 0.26670000000000016
314.904 0.26670000000000016
315.217 0.41669999999999874
315.529 0.25
315.842 0.28330000000000055
316.155 0.1999999999999993
316.467 0.31670000000000087
316.78 0.23329999999999984
317.093 0.26670000000000016
317.405 0.366699999999998
317.718 0.3000000000000007
318.031 0.3000000000000007
318.343 0.28330000000000055
318.656 0.28330000000000055
318.969 0.3332999999999977
319.281 0.28330000000000055
319.592 0.3832999999999984
319.904 0.34999999999999787
320.217 0.28330000000000055
320.529 0.26670000000000016
320.842 0.28330000000000055
321.154 0.16669999999999874
321.467 0.23329999999999984
321.779 0.31670000000000087
322.092 0.3332999999999977
322.404 0.3332999999999977
322.717 0.31670000000000087
323.029 0.31670000000000087
323.342 0.28330000000000055
323.654 0.31670000000000087
323.965 0.34999999999999787
324.277 0.34999999999999787
324.589 0.28330000000000055
324.902 0.26670000000000016
325.214 0.41669999999999874
325.527 0.28330000000000055
325.839 0.366699999999998
326.151 0.3332999999999977
326.464 0.366699999999998
326.776 0.3000000000000007
327.086 0.31670000000000087
327.399 0.3832999999999984
327.711 0.3000000000000007
328.023 0.34999999999999787
328.335 0.3832999999999984
328.648 0.28330000000000055
328.96 0.31670000000000087
329.27 0.3999999999999986
329.582 0.46669999999999945
329.895 0.3832999999999984
330.207 0.3999999999999986
330.519 0.4499999999999993
330.831 0.34999999999999787
331.143 0.4499999999999993
331.454 0.41669999999999874
331.766 0.3832999999999984
332.078 0.48329999999999984
332.39 0.366699999999998
332.702 0.41669999999999874
333.014 0.3832999999999984
333.326 0.43329999999999913
333.636 0.43329999999999913
333.948 0.34999999999999787
334.261 0.46669999999999945
334.573 0.3999999999999986
334.885 0.43329999999999913
335.195 0.3832999999999984
335.507 0.366699999999998
335.819 0.34999999999999787
336.131 0.366699999999998
336.443 0.34999999999999787
336.753 0.28330000000000055
337.065 0.366699999999998
337.377 0.46669999999999945
337.689 0.366699999999998
338.001 0.1999999999999993
338.31 0.3332999999999977
338.622 0.25
338.934 0.366699999999998
339.246 0.34999999999999787
339.558 0.34999999999999787
339.868 0.3999999999999986
340.18 0.23329999999999984
340.492 0.3832999999999984
340.804 0.26670000000000016
341.113 0.3832999999999984
341.425 0.3000000000000007
341.737 0.41669999999999874
342.049 0.43329999999999913
342.361 0.25
342.67 0.3000000000000007
342.982 0.26670000000000016
343.294 0.3332999999999977
343.606 0.21669999999999945
343.915 0.34999999999999787
344.227 0.3332999999999977
344.539 0.3332999999999977
344.849 0.366699999999998
345.16 0.3832999999999984
345.472 0.31670000000000087
345.784 0.46669999999999945
346.093 0.366699999999998
346.405 0.46669999999999945
346.717 0.28330000000000055
347.028 0.41669999999999874
347.338 0.3332999999999977
347.649 0.43329999999999913
347.961 0.3999999999999986
348.271 0.3000000000000007
348.582 0.3000000000000007
348.894 0.43329999999999913
349.205 0.48329999999999984
349.515 0.3999999999999986
349.826 0.366699999999998
350.138 0.46669999999999945
350.447 0.5
350.759 0.28330000000000055
351.07 0.34999999999999787
351.38 0.3332999999999977
351.691 0.31670000000000087
352.003 0.3832999999999984
352.312 0.3000000000000007
352.624 0.34999999999999787
352.935 0.34999999999999787
353.245 0.25
353.556 0.366699999999998
353.867 0.28330000000000055
354.177 0.3332999999999977
354.488 0.3832999999999984
354.799 0.3832999999999984
355.109 0.5
355.42 0.31670000000000087
355.732 0.46669999999999945
356.041 0.41669999999999874
356.352 0.25
356.663 0.3999999999999986
356.973 0.34999999999999787
357.284 0.3832999999999984
357.593 0.3332999999999977
357.905 0.34999999999999787
358.216 0.34999999999999787
358.525 0.3999999999999986
358.836 0.3832999999999984
359.147 0.3000000000000007
359.457 0.3332999999999977
359.768 0.31670000000000087
360.077 0.25
360.388 0.5
360.699 0.34999999999999787
361.008 0.5
361.32 0.5333000000000006
361.629 0.34999999999999787
361.94 0.366699999999998
362.251 0.41669999999999874
362.56 0.34999999999999787
362.871 0.43329999999999913
363.18 0.3000000000000007
363.491 0.5667000000000009
363.8 0.23329999999999984
364.111 0.31670000000000087
364.422 0.3832999999999984
364.731 0.43329999999999913
365.042 0.3332999999999977
365.351 0.34999999999999787
365.662 0.3000000000000007
365.971 0.31670000000000087
366.282 0.34999999999999787
366.593 0.31670000000000087
366.902 0.31670000000000087
367.213 0.366699999999998
367.522 0.28330000000000055
367.833 0.25
368.142 0.366699999999998
368.453 0.31670000000000087
368.762 0.4499999999999993
369.073 0.3832999999999984
369.381 0.3332999999999977
369.692 0.43329999999999913
370.001 0.31670000000000087
370.312 0.366699999999998
370.623 0.3832999999999984
370.932 0.3332999999999977
371.242 0.31670000000000087
371.551 0.28330000000000055
371.862 0.34999999999999787
372.171 0.34999999999999787
372.482 0.3832999999999984
372.79 0.4499999999999993
373.101 0.28330000000000055
373.41 0.41669999999999874
373.721 0.366699999999998
374.029 0.23329999999999984
374.34 0.48329999999999984
374.649 0.3332999999999977
374.959 0.366699999999998
375.268 0.3000000000000007
375.577 0.366699999999998
375.887 0.41669999999999874
376.196 0.3000000000000007
376.506 0.31670000000000087
376.815 0.31670000000000087
377.126 0.3999999999999986
377.434 0.3999999999999986
377.745 0.23329999999999984
378.053 0.41669999999999874
378.364 0.3000000000000007
378.672 0.41669999999999874
378.983 0.3332999999999977
379.292 0.28330000000000055
379.6 0.3999999999999986
379.911 0.26670000000000016
380.219 0.31670000000000087
380.53 0.3999999999999986
380.838 0.3832999999999984
381.148 0.41669999999999874
381.457 0.34999999999999787
381.767 0.3832999999999984
382.076 0.34999999999999787
382.384 0.34999999999999787
382.695 0.3832999999999984
383.003 0.3332999999999977
383.313 0.34999999999999787
383.622 0.28330000000000055
383.93 0.3832999999999984
384.24 0.3832999999999984
384.549 0.366699999999998
384.859 0.25
385.167 0.34999999999999787
385.476 0.3832999999999984
385.786 0.3332999999999977
386.094 0.3332999999999977
386.405 0.3832999999999984
386.713 0.3332999999999977
387.021 0.34999999999999787
387.331 0.41669999999999874
387.64 0.3332999999999977
387.948 0.41669999999999874
388.258 0.3832999999999984
388.566 0.4499999999999993
388.877 0.46669999999999945
389.185 0.23329999999999984
389.493 0.366699999999998
389.803 0.5
390.111 0.3832999999999984
390.419 0.28330000000000055
390.729 0.3999999999999986
391.038 0.3999999999999986
391.346 0.3999999999999986
391.656 0.3999999999999986
391.964 0.41669999999999874
392.272 0.31670000000000087
392.582 0.31670000000000087
392.89 0.3832999999999984
393.198 0.3000000000000007
393.508 0.366699999999998
393.816 0.41669999999999874
394.124 0.41669999999999874
394.434 0.34999999999999787
394.742 0.3999999999999986
395.05 0.3832999999999984
395.36 0.28330000000000055
395.668 0.43329999999999913
395.976 0.3999999999999986
396.286 0.31670000000000087
396.594 0.43329999999999913
396.902 0.34999999999999787
397.21 0.3999999999999986
397.52 0.3332999999999977
397.828 0.28330000000000055
398.135 0.34999999999999787
398.445 0.3832999999999984
398.753 0.3832999999999984
399.061 0.366699999999998
399.369 0.3999999999999986
399.679 0.3832999999999984
399.987 0.28330000000000055
400.294 0.3832999999999984
400.604 0.34999999999999787
400.912 0.5500000000000007
401.22 0.3832999999999984
401.527 0.28330000000000055
401.837 0.3832999999999984
402.145 0.28330000000000055
402.453 0.31670000000000087
402.76 0.31670000000000087
403.07 0.3332999999999977
403.378 0.31670000000000087
403.686 0.23329999999999984
403.993 0.4499999999999993
404.303 0.28330000000000055
404.611 0.5167000000000002
404.918 0.41669999999999874
405.226 0.34999999999999787
405.533 0.3332999999999977
405.843 0.366699999999998
406.151 0.3332999999999977
406.458 0.5167000000000002
406.766 0.3832999999999984
407.076 0.5167000000000002
407.383 0.366699999999998
407.691 0.3999999999999986
407.998 0.5
408.306 0.4499999999999993
408.615 0.3832999999999984
408.923 0.34999999999999787
409.23 0.4499999999999993
409.538 0.41669999999999874
409.845 0.366699999999998
410.153 0.6832999999999991
410.462 0.366699999999998
410.77 0.4499999999999993
411.077 0.5832999999999977
411.384 0.3832999999999984
411.692 0.41669999999999874
412.001 0.5
412.309 0.5500000000000007
412.616 0.41669999999999874
412.923 0.46669999999999945
413.231 0.48329999999999984
413.538 0.3832999999999984
413.845 0.5999999999999979
414.155 0.6666999999999987
414.462 0.5333000000000006
414.769 0.5500000000000007
415.077 0.6832999999999991
415.384 0.5832999999999977
415.691 0.5500000000000007
415.999 0.6999999999999993
416.308 0.7667000000000002
416.615 0.5333000000000006
416.922 0.75
417.23 0.5999999999999979
417.537 0.6499999999999986
417.844 0.7332999999999998
418.151 0.75
418.458 0.75
418.768 0.8000000000000007
419.075 0.7332999999999998
419.382 1.0
419.689 0.8832999999999984
419.996 1.0
420.303 0.8167000000000009
420.61 0.9666999999999994
420.918 1.0667000000000009
421.225 1.0500000000000007
421.532 1.1499999999999986
421.841 1.0832999999999977
422.148 1.3499999999999979
422.455 1.1332999999999984
422.762 1.25
423.069 1.5333000000000006
423.376 1.3000000000000007
423.683 1.5
423.99 1.366699999999998
424.297 1.25
424.604 1.5167000000000002
424.911 1.4832999999999998
425.218 1.4332999999999991
425.525 1.366699999999998
425.832 1.3332999999999977
426.139 1.3499999999999979
426.446 1.3999999999999986
426.753 1.3999999999999986
427.061 1.4832999999999998
427.368 1.2833000000000006
427.675 1.1666999999999987
427.982 1.3000000000000007
428.289 1.2667000000000002
428.596 1.2332999999999998
428.903 0.9832999999999998
429.209 0.9332999999999991
429.516 1.2166999999999994
429.823 1.0500000000000007
430.13 0.8332999999999977
430.437 0.8832999999999984
430.743 0.7667000000000002
431.05 0.8999999999999986
431.357 0.8167000000000009
431.664 0.7833000000000006
431.97 0.6499999999999986
432.277 0.7833000000000006
432.584 0.5999999999999979
432.891 0.75
433.197 0.8167000000000009
433.504 0.7166999999999994
433.811 0.6332999999999984
434.117 0.48329999999999984
434.424 0.616699999999998
434.731 0.6999999999999993
435.037 0.6332999999999984
435.344 0.43329999999999913
435.65 0.5667000000000009
435.957 0.5832999999999977
436.262 0.5999999999999979
436.568 0.366699999999998
436.875 0.46669999999999945
437.181 0.48329999999999984
437.488 0.5667000000000009
437.794 0.5
438.101 0.5333000000000006
438.407 0.5667000000000009
438.714 0.46669999999999945
439.02 0.5999999999999979
439.327 0.46669999999999945
439.633 0.48329999999999984
439.94 0.5333000000000006
440.246 0.5167000000000002
440.553 0.4499999999999993
440.859 0.46669999999999945
441.163 0.48329999999999984
441.47 0.5333000000000006
441.776 0.4499999999999993
442.083 0.5
442.389 0.46669999999999945
442.695 0.48329999999999984
443.002 0.3999999999999986
443.308 0.41669999999999874
443.614 0.31670000000000087
443.921 0.43329999999999913
444.225 0.48329999999999984
444.531 0.5
444.838 0.46669999999999945
445.144 0.41669999999999874
445.45 0.4499999999999993
445.757 0.3832999999999984
446.063 0.5
446.369 0.3832999999999984
446.675 0.3999999999999986
446.979 0.3000000000000007
447.286 0.41669999999999874
447.592 0.5500000000000007
447.898 0.41669999999999874
448.204 0.43329999999999913
448.51 0.4499999999999993
448.817 0.5500000000000007
449.121 0.3999999999999986
449.427 0.4499999999999993
449.733 0.5167000000000002
450.039 0.46669999999999945
450.345 0.6832999999999991
450.651 0.5
450.955 0.5
451.261 0.48329999999999984
451.568 0.5167000000000002
451.874 0.3999999999999986
452.18 0.34999999999999787
452.486 0.46669999999999945
452.79 0.31670000000000087
453.096 0.43329999999999913
453.402 0.5
453.708 0.4499999999999993
454.014 0.43329999999999913
454.318 0.4499999999999993
454.624 0.3999999999999986
454.93 0.5832999999999977
455.236 0.43329999999999913
455.541 0.5333000000000006
455.845 0.31670000000000087
456.151 0.3999999999999986
456.457 0.366699999999998
456.763 0.4499999999999993
457.067 0.41669999999999874
457.373 0.5832999999999977
457.679 0.48329999999999984
457.985 0.41669999999999874
458.29 0.4499999999999993
458.594 0.4499999999999993
458.9 0.3999999999999986
459.206 0.5167000000000002
459.512 0.34999999999999787
459.815 0.41669999999999874
460.121 0.5667000000000009
460.427 0.34999999999999787
460.733 0.41669999999999874
461.036 0.43329999999999913
461.342 0.3832999999999984
461.648 0.5
461.954 0.5
462.257 0.46669999999999945
462.563 0.43329999999999913
462.869 0.5
463.172 0.46669999999999945
463.478 0.28330000000000055
463.784 0.4499999999999993
464.089 0.48329999999999984
464.393 0.5333000000000006
464.699 0.34999999999999787
465.004 0.41669999999999874
465.308 0.3000000000000007
465.613 0.4499999999999993
465.919 0.31670000000000087
466.225 0.43329999999999913
466.528 0.46669999999999945
466.834 0.48329999999999984
467.139 0.43329999999999913
467.443 0.4499999999999993
467.748 0.3999999999999986
468.054 0.28330000000000055
468.357 0.5167000000000002
468.663 0.5167000000000002
468.968 0.41669999999999874
469.272 0.43329999999999913
469.577 0.366699999999998
469.883 0.41669999999999874
470.186 0.4499999999999993
470.492 0.28330000000000055
470.797 0.46669999999999945
471.1 0.3332999999999977
471.406 0.5333000000000006
471.711 0.3332999999999977
472.014 0.3832999999999984
472.32 0.3332999999999977
472.625 0.5
472.929 0.3999999999999986
473.234 0.3999999999999986
473.539 0.43329999999999913
473.843 0.5667000000000009
474.148 0.34999999999999787
474.451 0.41669999999999874
474.756 0.41669999999999874
475.062 0.3999999999999986
475.365 0.5
475.67 0.5167000000000002
475.973 0.5167000000000002
476.279 0.48329999999999984
476.584 0.5999999999999979
476.887 0.5667000000000009
477.192 0.4499999999999993
477.498 0.6999999999999993
477.801 0.6999999999999993
478.106 0.8167000000000009
478.409 0.8999999999999986
478.714 0.9666999999999994
479.017 0.8832999999999984
479.322 0.8999999999999986
479.628 0.9666999999999994
479.931 0.866699999999998
480.236 0.9499999999999993
480.539 0.9832999999999998
480.844 0.8000000000000007
481.147 1.0
481.452 0.8999999999999986
481.757 0.8499999999999979
482.06 0.9832999999999998
482.365 0.8000000000000007
482.668 0.7833000000000006
482.973 0.8999999999999986
483.276 0.7332999999999998
483.581 0.8832999999999984
483.884 0.5832999999999977
484.189 0.7833000000000006
484.494 0.5999999999999979
484.797 0.5999999999999979
485.102 0.6666999999999987
485.405 0.3832999999999984
485.71 0.5167000000000002
486.013 0.46669999999999945
486.318 0.43329999999999913
486.621 0.616699999999998
486.925 0.41669999999999874
487.228 0.5167000000000002
487.533 0.3999999999999986
487.836 0.5
488.141 0.366699999999998
488.444 0.48329999999999984
488.748 0.46669999999999945
489.051 0.5832999999999977
489.356 0.26670000000000016
489.659 0.43329999999999913
489.964 0.41669999999999874
490.266 0.41669999999999874
490.571 0.366699999999998
490.874 0.34999999999999787
491.179 0.5
491.481 0.3832999999999984
491.786 0.3999999999999986
492.089 0.43329999999999913
492.393 0.43329999999999913
492.696 0.46669999999999945
493.001 0.3999999999999986
493.303 0.48329999999999984
493.606 0.3832999999999984
493.911 0.3999999999999986
494.213 0.4499999999999993
494.518 0.43329999999999913
494.821 0.43329999999999913
495.125 0.3999999999999986
495.428 0.46669999999999945
495.732 0.3000000000000007
496.035 0.3999999999999986
496.337 0.43329999999999913
496.642 0.4499999999999993
496.945 0.34999999999999787
497.249 0.4499999999999993
497.552 0.3999999999999986
497.856 0.4499999999999993
498.159 0.34999999999999787
498.461 0.3000000000000007
498.766 0.3332999999999977
499.068 0.3999999999999986
499.372 0.41669999999999874
499.675 0.31670000000000087
499.977 0.5500000000000007
500.282 0.46669999999999945
500.584 0.34999999999999787
500.889 0.366699999999998
501.191 0.31670000000000087
501.493 0.3332999999999977
501.798 0.41669999999999874
502.1 0.3999999999999986
502.402 0.28330000000000055
502.707 0.3832999999999984
503.009 0.43329999999999913
503.314 0.3332999999999977
503.616 0.31670000000000087
503.918 0.3332999999999977
504.222 0.26670000000000016
504.525 0.3000000000000007
504.827 0.28330000000000055
505.131 0.3832999999999984
505.433 0.3000000000000007
505.736 0.3999999999999986
506.04 0.3832999999999984
506.342 0.43329999999999913
506.646 0.26670000000000016
506.949 0.31670000000000087
507.251 0.41669999999999874
507.555 0.34999999999999787
507.857 0.366699999999998
508.159 0.366699999999998
508.461 0.46669999999999945
508.766 0.3832999999999984
509.068 0.48329999999999984
509.37 0.3332999999999977
509.674 0.31670000000000087
509.976 0.41669999999999874
510.278 0.28330000000000055
510.582 0.366699999999998
510.884 0.43329999999999913
511.186 0.43329999999999913
511.49 0.366699999999998
511.792 0.3832999999999984
512.094 0.5
512.396 0.26670000000000016
512.701 0.3832999999999984
513.003 0.366699999999998
513.305 0.366699999999998
513.609 0.4499999999999993
513.91 0.3832999999999984
514.212 0.366699999999998
514.514 0.41669999999999874
514.818 0.31670000000000087
515.12 0.46669999999999945
515.422 0.366699999999998
515.724 0.28330000000000055
516.028 0.4499999999999993
516.33 0.3000000000000007
516.632 0.41669999999999874
516.934 0.34999999999999787
517.237 0.3332999999999977
517.539 0.28330000000000055
517.841 0.366699999999998
518.143 0.3832999999999984
518.447 0.34999999999999787
518.749 0.3832999999999984
519.05 0.43329999999999913
519.352 0.34999999999999787
519.656 0.3999999999999986
519.958 0.3832999999999984
520.26 0.48329999999999984
520.561 0.4499999999999993
520.863 0.3999999999999986
521.167 0.41669999999999874
521.468 0.4499999999999993
521.77 0.43329999999999913
522.072 0.41669999999999874
522.376 0.4499999999999993
522.677 0.366699999999998
522.979 0.43329999999999913
523.281 0.5333000000000006
523.582 0.46669999999999945
523.884 0.5333000000000006
524.187 0.5
524.489 0.43329999999999913
524.791 0.34999999999999787
525.092 0.3000000000000007
525.394 0.4499999999999993
525.697 0.48329999999999984
525.999 0.3832999999999984
526.301 0.3000000000000007
526.602 0.34999999999999787
526.904 0.3332999999999977
527.205 0.31670000000000087
527.507 0.41669999999999874
527.81 0.5167000000000002
528.112 0.3832999999999984
528.413 0.4499999999999993
528.715 0.366699999999998
529.016 0.48329999999999984
529.318 0.43329999999999913
529.619 0.366699999999998
529.922 0.34999999999999787
530.224 0.3832999999999984
530.525 0.46669999999999945
530.827 0.366699999999998
531.128 0.43329999999999913
531.429 0.41669999999999874
531.731 0.34999999999999787
532.032 0.3332999999999977
532.336 0.366699999999998
532.637 0.23329999999999984
532.938 0.3332999999999977
533.24 0.3332999999999977
533.541 0.366699999999998
533.842 0.366699999999998
534.143 0.5500000000000007
534.445 0.366699999999998
534.746 0.41669999999999874
535.047 0.43329999999999913
535.351 0.31670000000000087
535.652 0.3832999999999984
535.953 0.46669999999999945
536.254 0.34999999999999787
536.555 0.31670000000000087
536.857 0.3332999999999977
537.158 0.3999999999999986
537.459 0.3332999999999977
537.76 0.28330000000000055
538.061 0.41669999999999874
538.362 0.41669999999999874
538.664 0.43329999999999913
538.965 0.3999999999999986
539.266 0.41669999999999874
539.567 0.366699999999998
539.868 0.5167000000000002
540.169 0.43329999999999913
540.472 0.34999999999999787
540.773 0.41669999999999874
541.074 0.26670000000000016
541.375 0.5
541.677 0.48329999999999984
541.978 0.46669999999999945
542.279 0.26670000000000016
542.58 0.366699999999998
542.881 0.48329999999999984
543.182 0.34999999999999787
543.483 0.366699999999998
543.784 0.41669999999999874
544.085 0.3000000000000007
544.385 0.43329999999999913
544.686 0.5500000000000007
544.987 0.3999999999999986
545.288 0.31670000000000087
545.589 0.5
545.89 0.34999999999999787
546.191 0.3332999999999977
546.492 0.46669999999999945
546.793 0.48329999999999984
547.094 0.48329999999999984
547.394 0.3832999999999984
547.695 0.43329999999999913
547.996 0.48329999999999984
548.297 0.41669999999999874
548.596 0.46669999999999945
548.897 0.5500000000000007
549.197 0.3999999999999986
549.498 0.4499999999999993
549.799 0.366699999999998
550.1 0.46669999999999945
550.4 0.48329999999999984
550.701 0.5500000000000007
551.002 0.5167000000000002
551.303 0.5
551.603 0.46669999999999945
551.904 0.5832999999999977
552.205 0.5333000000000006
552.505 0.5667000000000009
552.806 0.5167000000000002
553.107 0.5167000000000002
553.407 0.48329999999999984
553.706 0.5999999999999979
554.007 0.4499999999999993
554.307 0.48329999999999984
554.608 0.6499999999999986
554.909 0.5999999999999979
555.209 0.5999999999999979
555.51 0.48329999999999984
555.81 0.5500000000000007
556.111 0.6499999999999986
556.411 0.5999999999999979
556.71 0.6666999999999987
557.01 0.5832999999999977
557.311 0.5832999999999977
557.612 0.6666999999999987
557.912 0.6332999999999984
558.213 0.5667000000000009
558.513 0.5167000000000002
558.813 0.5500000000000007
559.112 0.5500000000000007
559.412 0.3999999999999986
559.713 0.5999999999999979
560.013 0.5832999999999977
560.314 0.46669999999999945
560.614 0.4499999999999993
560.914 0.5
561.213 0.4499999999999993
561.513 0.5333000000000006
561.814 0.48329999999999984
562.114 0.5667000000000009
562.414 0.48329999999999984
562.715 0.4499999999999993
563.015 0.5500000000000007
563.313 0.34999999999999787
563.614 0.5167000000000002
563.914 0.43329999999999913
564.214 0.366699999999998
564.515 0.41669999999999874
564.813 0.3999999999999986
565.113 0.4499999999999993
565.413 0.4499999999999993
565.714 0.41669999999999874
566.014 0.5500000000000007
566.312 0.43329999999999913
566.612 0.41669999999999874
566.912 0.31670000000000087
567.213 0.41669999999999874
567.513 0.48329999999999984
567.811 0.3999999999999986
568.111 0.41669999999999874
568.411 0.31670000000000087
568.712 0.48329999999999984
569.012 0.3999999999999986
569.31 0.46669999999999945
569.61 0.43329999999999913
569.91 0.3999999999999986
570.21 0.41669999999999874
570.508 0.46669999999999945
570.808 0.3832999999999984
571.108 0.3332999999999977
571.408 0.3832999999999984
571.706 0.43329999999999913
572.006 0.48329999999999984
572.306 0.3332999999999977
572.607 0.3332999999999977
572.904 0.366699999999998
573.204 0.48329999999999984
573.505 0.48329999999999984
573.805 0.3832999999999984
574.102 0.3999999999999986
574.402 0.46669999999999945
574.702 0.5167000000000002
575.002 0.3999999999999986
575.3 0.28330000000000055
575.6 0.3999999999999986
575.9 0.28330000000000055
576.198 0.5167000000000002
576.498 0.3332999999999977
576.798 0.3832999999999984
577.098 0.26670000000000016
577.395 0.41669999999999874
577.695 0.3332999999999977
577.995 0.28330000000000055
578.293 0.3999999999999986
578.593 0.3332999999999977
578.893 0.3999999999999986
579.19 0.28330000000000055
579.49 0.41669999999999874
579.79 0.4499999999999993
580.088 0.31670000000000087
580.387 0.5167000000000002
580.687 0.34999999999999787
580.985 0.31670000000000087
581.285 0.4499999999999993
581.584 0.4499999999999993
581.882 0.46669999999999945
582.182 0.3000000000000007
582.482 0.41669999999999874
582.779 0.3999999999999986
583.079 0.43329999999999913
583.378 0.4499999999999993
583.676 0.3832999999999984
583.976 0.34999999999999787
584.275 0.41669999999999874
584.573 0.3999999999999986
584.873 0.3832999999999984
585.17 0.3832999999999984
585.47 0.4499999999999993
585.769 0.5333000000000006
586.067 0.46669999999999945
586.367 0.34999999999999787
586.666 0.48329999999999984
586.964 0.3999999999999986
587.263 0.5
587.561 0.34999999999999787
587.86 0.46669999999999945
588.16 0.3999999999999986
588.457 0.25
588.757 0.4499999999999993
589.054 0.34999999999999787
589.354 0.3999999999999986
589.653 0.366699999999998
589.951 0.41669999999999874
590.25 0.366699999999998
590.547 0.34999999999999787
590.847 0.366699999999998
591.144 0.48329999999999984
591.444 0.366699999999998
591.743 0.3000000000000007
592.04 0.3832999999999984
592.34 0.4499999999999993
592.637 0.34999999999999787
592.936 0.3999999999999986
593.234 0.28330000000000055
593.533 0.43329999999999913
593.832 0.34999999999999787
594.13 0.28330000000000055
594.429 0.31670000000000087
594.726 0.41669999999999874
595.026 0.31670000000000087
595.323 0.48329999999999984
595.622 0.34999999999999787
595.919 0.41669999999999874
596.219 0.34999999999999787
596.516 0.3832999999999984
596.815 0.41669999999999874
597.112 0.34999999999999787
597.411 0.41669999999999874
597.709 0.43329999999999913
598.008 0.3332999999999977
598.305 0.5
598.604 0.41669999999999874
598.901 0.4499999999999993
599.2 0.366699999999998
599.497 0.3832999999999984
599.797 0.3999999999999986
600.094 0.43329999999999913
600.393 0.366699999999998
600.69 0.5832999999999977
600.989 0.3832999999999984
601.286 0.41669999999999874
601.585 0.43329999999999913
601.882 0.46669999999999945
602.181 0.3332999999999977
602.478 0.46669999999999945
602.777 0.46669999999999945
603.074 0.3832999999999984
603.373 0.5333000000000006
603.67 0.31670000000000087
603.969 0.41669999999999874
604.266 0.5
604.563 0.366699999999998
604.862 0.43329999999999913
605.159 0.3000000000000007
605.458 0.46669999999999945
605.755 0.41669999999999874
606.054 0.5333000000000006
606.351 0.5333000000000006
606.65 0.34999999999999787
606.946 0.4499999999999993
607.243 0.48329999999999984
607.542 0.34999999999999787
607.839 0.48329999999999984
608.138 0.366699999999998
608.435 0.3999999999999986
608.732 0.3832999999999984
609.03 0.43329999999999913
609.327 0.3832999999999984
609.626 0.3999999999999986
609.923 0.48329999999999984
610.22 0.5
610.518 0.46669999999999945
610.815 0.5167000000000002
611.114 0.5
611.411 0.46669999999999945
611.707 0.4499999999999993
612.006 0.7166999999999994
612.303 0.43329999999999913
612.601 0.5999999999999979
612.898 0.5999999999999979
613.195 0.5167000000000002
613.493 0.43329999999999913
613.79 0.5167000000000002
614.087 0.3832999999999984
614.385 0.48329999999999984
614.682 0.6499999999999986
614.979 0.5500000000000007
615.277 0.366699999999998
615.574 0.48329999999999984
615.87 0.46669999999999945
616.169 0.48329999999999984
616.466 0.5
616.764 0.48329999999999984
617.061 0.43329999999999913
617.357 0.48329999999999984
617.656 0.4499999999999993
617.952 0.41669999999999874
618.249 0.5167000000000002
618.545 0.4499999999999993
618.844 0.3332999999999977
619.14 0.41669999999999874
619.437 0.48329999999999984
619.735 0.48329999999999984
620.032 0.34999999999999787
620.328 0.43329999999999913
620.626 0.46669999999999945
620.923 0.34999999999999787
621.219 0.4499999999999993
621.518 0.43329999999999913
621.814 0.26670000000000016
622.11 0.366699999999998
622.407 0.3832999999999984
622.705 0.366699999999998
623.002 0.3832999999999984
623.298 0.5333000000000006
623.594 0.366699999999998
623.893 0.4499999999999993
624.189 0.43329999999999913
624.485 0.3999999999999986
624.784 0.5167000000000002
625.08 0.34999999999999787
625.376 0.3832999999999984
625.672 0.3832999999999984
625.971 0.3999999999999986
626.267 0.5333000000000006
626.563 0.3332999999999977
626.859 0.46669999999999945
627.158 0.5
627.454 0.3332999999999977
627.75 0.5
628.046 0.31670000000000087
628.342 0.3832999999999984
628.641 0.41669999999999874
628.937 0.3999999999999986
629.233 0.31670000000000087
629.529 0.366699999999998
629.827 0.366699999999998
630.123 0.3332999999999977
630.419 0.366699999999998
630.715 0.34999999999999787
631.011 0.3000000000000007
631.31 0.3999999999999986
631.606 0.41669999999999874
631.902 0.5167000000000002
632.198 0.3332999999999977
632.494 0.4499999999999993
632.792 0.26670000000000016
633.088 0.4499999999999993
633.384 0.366699999999998
633.68 0.48329999999999984
633.976 0.41669999999999874
634.272 0.43329999999999913
634.57 0.43329999999999913
634.866 0.25
635.162 0.366699999999998
635.458 0.43329999999999913
635.754 0.46669999999999945
636.05 0.26670000000000016
636.347 0.5
636.643 0.21669999999999945
636.939 0.3832999999999984
637.235 0.31670000000000087
637.531 0.3999999999999986
637.827 0.31670000000000087
638.123 0.5
638.421 0.3832999999999984
638.716 0.5667000000000009
639.012 0.3832999999999984
639.308 0.34999999999999787
639.604 0.5
639.9 0.3332999999999977
640.195 0.34999999999999787
640.491 0.366699999999998
640.789 0.31670000000000087
641.085 0.3832999999999984
641.381 0.41669999999999874
641.676 0.4499999999999993
641.972 0.3332999999999977
642.268 0.3332999999999977
642.563 0.366699999999998
642.859 0.28330000000000055
643.155 0.48329999999999984
643.451 0.366699999999998
643.746 0.5500000000000007
644.044 0.43329999999999913
644.34 0.366699999999998
644.635 0.366699999999998
644.931 0.3000000000000007
645.227 0.43329999999999913
645.522 0.3332999999999977
645.818 0.28330000000000055
646.113 0.41669999999999874
646.409 0.3000000000000007
646.704 0.46669999999999945
647.0 0.3000000000000007
647.296 0.3332999999999977
647.591 0.5
647.887 0.3332999999999977
648.182 0.43329999999999913
648.478 0.21669999999999945
648.773 0.5500000000000007
649.069 0.366699999999998
649.366 0.41669999999999874
649.662 0.5167000000000002
649.957 0.31670000000000087
650.253 0.3832999999999984
650.548 0.3832999999999984
650.844 0.46669999999999945
651.139 0.48329999999999984
651.434 0.3000000000000007
651.73 0.46669999999999945
652.025 0.43329999999999913
652.321 0.3832999999999984
652.616 0.5333000000000006
652.911 0.4499999999999993
653.207 0.46669999999999945
653.502 0.43329999999999913
653.797 0.4499999999999993
654.093 0.43329999999999913
654.388 0.5167000000000002
654.683 0.34999999999999787
654.979 0.46669999999999945
655.274 0.48329999999999984
655.567 0.5667000000000009
655.863 0.4499999999999993
656.158 0.5667000000000009
656.453 0.5667000000000009
656.748 0.48329999999999984
657.044 0.616699999999998
657.339 0.5667000000000009
657.634 0.5667000000000009
657.929 0.616699999999998
658.224 0.6832999999999991
658.52 0.6666999999999987
658.815 0.5333000000000006
659.11 0.5832999999999977
659.405 0.75
659.7 0.6332999999999984
659.995 0.6666999999999987
660.291 0.5999999999999979
660.586 0.7833000000000006
660.879 0.5999999999999979
661.174 0.6499999999999986
661.469 0.6832999999999991
661.764 0.6499999999999986
662.059 0.6666999999999987
662.354 0.6832999999999991
662.649 0.75
662.944 0.6332999999999984
663.239 0.7667000000000002
663.534 0.5667000000000009
663.83 0.616699999999998
664.122 0.616699999999998
664.417 0.5
664.713 0.5832999999999977
665.008 0.5667000000000009
665.302 0.5167000000000002
665.597 0.5999999999999979
665.892 0.6499999999999986
666.187 0.5667000000000009
666.48 0.46669999999999945
666.775 0.5999999999999979
667.07 0.5
667.365 0.5500000000000007
667.66 0.5333000000000006
667.955 0.48329999999999984
668.25 0.5333000000000006
668.542 0.6332999999999984
668.837 0.5500000000000007
669.132 0.5500000000000007
669.427 0.5167000000000002
669.722 0.5
670.017 0.5832999999999977
670.31 0.3832999999999984
670.604 0.43329999999999913
670.899 0.5167000000000002
671.194 0.46669999999999945
671.489 0.48329999999999984
671.783 0.46669999999999945
672.076 0.43329999999999913
672.371 0.3999999999999986
672.666 0.3999999999999986
672.96 0.5999999999999979
673.255 0.3999999999999986
673.548 0.3000000000000007
673.842 0.43329999999999913
674.137 0.46669999999999945
674.432 0.41669999999999874
674.727 0.41669999999999874
675.019 0.41669999999999874
675.314 0.3999999999999986
675.608 0.43329999999999913
675.903 0.34999999999999787
676.196 0.41669999999999874
676.49 0.41669999999999874
676.785 0.43329999999999913
677.079 0.31670000000000087
677.374 0.4499999999999993
677.667 0.5
677.961 0.3832999999999984
678.256 0.4499999999999993
678.55 0.4499999999999993
678.843 0.46669999999999945
679.137 0.41669999999999874
679.432 0.48329999999999984
679.726 0.41669999999999874
680.019 0.3000000000000007
680.313 0.43329999999999913
680.608 0.41669999999999874
680.902 0.3999999999999986
681.195 0.3832999999999984
681.489 0.34999999999999787
681.784 0.5
682.076 0.34999999999999787
682.37 0.3999999999999986
682.665 0.34999999999999787
682.959 0.3999999999999986
683.252 0.41669999999999874
683.546 0.31670000000000087
683.84 0.366699999999998
684.133 0.46669999999999945
684.427 0.46669999999999945
684.721 0.4499999999999993
685.014 0.43329999999999913
685.308 0.31670000000000087
685.602 0.3999999999999986
685.895 0.3832999999999984
686.189 0.34999999999999787
686.483 0.34999999999999787
686.778 0.3999999999999986
687.07 0.366699999999998
687.364 0.31670000000000087
687.658 0.5
687.951 0.31670000000000087
688.245 0.366699999999998
688.537 0.3000000000000007
688.831 0.366699999999998
689.125 0.41669999999999874
689.418 0.48329999999999984
689.712 0.28330000000000055
690.006 0.48329999999999984
690.298 0.5167000000000002
690.592 0.28330000000000055
690.886 0.3332999999999977
691.178 0.3832999999999984
691.473 0.366699999999998
691.767 0.366699999999998
692.059 0.3000000000000007
692.353 0.31670000000000087
692.645 0.3832999999999984
692.939 0.3332999999999977
693.233 0.1999999999999993
693.525 0.3999999999999986
693.819 0.3332999999999977
694.111 0.3832999999999984
694.405 0.3999999999999986
694.699 0.366699999999998
694.991 0.3832999999999984
695.285 0.4499999999999993
695.577 0.28330000000000055
695.871 0.4499999999999993
696.165 0.34999999999999787
696.457 0.3999999999999986
696.751 0.34999999999999787
697.043 0.3332999999999977
697.337 0.3832999999999984
697.629 0.4499999999999993
697.923 0.43329999999999913
698.217 0.43329999999999913
698.509 0.3332999999999977
698.802 0.46669999999999945
699.094 0.3832999999999984
699.388 0.34999999999999787
699.68 0.3832999999999984
699.974 0.366699999999998
700.266 0.25
700.56 0.34999999999999787
700.853 0.41669999999999874
701.145 0.3999999999999986
701.439 0.41669999999999874
701.731 0.26670000000000016
702.025 0.3332999999999977
702.316 0.46669999999999945
702.61 0.28330000000000055
702.902 0.31670000000000087
703.196 0.31670000000000087
703.487 0.3999999999999986
703.781 0.21669999999999945
704.073 0.3999999999999986
704.367 0.5667000000000009
704.658 0.34999999999999787
704.952 0.41669999999999874
705.244 0.3832999999999984
705.537 0.5
705.829 0.28330000000000055
706.122 0.366699999999998
706.414 0.3332999999999977
706.708 0.3999999999999986
706.999 0.41669999999999874
707.293 0.4499999999999993
