# Created: 2019-11-28 13:05:51.447555
# rshift intensity
76.1738 0.21659999999999968
76.4989 0.23329999999999984
76.824 0.28330000000000055
77.1491 0.28330000000000055
77.4721 0.11659999999999826
77.7972 0.11659999999999826
78.1223 0.16659999999999897
78.4474 0.11659999999999826
78.7724 0.09999999999999787
79.0975 0.13329999999999842
79.4204 0.16659999999999897
79.7454 0.11659999999999826
80.0704 0.13329999999999842
80.3954 0.21659999999999968
80.7204 0.14999999999999858
81.0454 0.016600000000000392
81.3682 0.13329999999999842
81.6931 0.16659999999999897
82.0181 0.11659999999999826
82.343 0.08329999999999771
82.6679 0.09999999999999787
82.9907 0.11659999999999826
83.3156 0.1999999999999993
83.6405 0.1999999999999993
83.9654 0.09999999999999787
84.2903 0.1999999999999993
84.613 0.0
84.9378 0.03330000000000055
85.2626 0.14999999999999858
85.5875 0.09999999999999787
85.9101 0.14999999999999858
86.2349 0.1999999999999993
86.5597 0.06659999999999755
86.8845 0.08329999999999771
87.2093 0.13329999999999842
87.5319 0.13329999999999842
87.8566 0.11659999999999826
88.1814 0.18329999999999913
88.5061 0.05000000000000071
88.8286 0.05000000000000071
89.1533 0.14999999999999858
89.478 0.1999999999999993
89.8027 0.08329999999999771
90.1252 0.11659999999999826
90.4499 0.14999999999999858
90.7745 0.1999999999999993
91.0992 0.13329999999999842
91.4216 0.11659999999999826
91.7462 0.13329999999999842
92.0708 0.18329999999999913
92.3954 0.1999999999999993
92.7179 0.1999999999999993
93.0424 0.08329999999999771
93.367 0.14999999999999858
93.6915 0.05000000000000071
94.0139 0.14999999999999858
94.3384 0.13329999999999842
94.6629 0.09999999999999787
94.9853 0.11659999999999826
95.3098 0.18329999999999913
95.6342 0.13329999999999842
95.9587 0.18329999999999913
96.281 0.13329999999999842
96.6055 0.09999999999999787
96.9299 0.13329999999999842
97.2522 0.14999999999999858
97.5766 0.11659999999999826
97.901 0.11659999999999826
98.2232 0.21659999999999968
98.5476 0.25
98.8719 0.13329999999999842
99.1942 0.25
99.5185 0.13329999999999842
99.8428 0.14999999999999858
100.165 0.09999999999999787
100.489 0.14999999999999858
100.814 0.11659999999999826
101.136 0.13329999999999842
101.46 0.13329999999999842
101.784 0.1999999999999993
102.106 0.23329999999999984
102.431 0.13329999999999842
102.755 0.14999999999999858
103.077 0.18329999999999913
103.401 0.06659999999999755
103.725 0.13329999999999842
104.047 0.11659999999999826
104.372 0.13329999999999842
104.696 0.11659999999999826
105.018 0.25
105.342 0.14999999999999858
105.666 0.18329999999999913
105.988 0.16659999999999897
106.312 0.13329999999999842
106.634 0.14999999999999858
106.958 0.23329999999999984
107.282 0.13329999999999842
107.604 0.18329999999999913
107.928 0.11659999999999826
108.252 0.18329999999999913
108.574 0.2666000000000004
108.898 0.05000000000000071
109.22 0.18329999999999913
109.544 0.1999999999999993
109.868 0.23329999999999984
110.19 0.21659999999999968
110.514 0.09999999999999787
110.836 0.18329999999999913
111.159 0.11659999999999826
111.483 0.09999999999999787
111.805 0.16659999999999897
112.129 0.1999999999999993
112.451 0.14999999999999858
112.775 0.2666000000000004
113.096 0.05000000000000071
113.42 0.14999999999999858
113.744 0.14999999999999858
114.066 0.21659999999999968
114.39 0.11659999999999826
114.711 0.25
115.035 0.16659999999999897
115.357 0.13329999999999842
115.681 0.23329999999999984
116.004 0.21659999999999968
116.326 0.11659999999999826
116.65 0.18329999999999913
116.971 0.08329999999999771
117.295 0.16659999999999897
117.617 0.13329999999999842
117.94 0.18329999999999913
118.262 0.13329999999999842
118.586 0.1999999999999993
118.907 0.21659999999999968
119.231 0.23329999999999984
119.554 0.06659999999999755
119.876 0.14999999999999858
120.199 0.18329999999999913
120.521 0.1999999999999993
120.845 0.18329999999999913
121.166 0.1999999999999993
121.49 0.16659999999999897
121.811 0.1999999999999993
122.135 0.13329999999999842
122.456 0.14999999999999858
122.78 0.13329999999999842
123.101 0.16659999999999897
123.424 0.16659999999999897
123.746 0.21659999999999968
124.069 0.13329999999999842
124.391 0.06659999999999755
124.714 0.25
125.035 0.11659999999999826
125.359 0.14999999999999858
125.68 0.11659999999999826
126.004 0.1999999999999993
126.325 0.16659999999999897
126.648 0.14999999999999858
126.97 0.11659999999999826
127.291 0.14999999999999858
127.614 0.13329999999999842
127.935 0.18329999999999913
128.259 0.13329999999999842
128.58 0.18329999999999913
128.903 0.16659999999999897
129.224 0.13329999999999842
129.548 0.13329999999999842
129.869 0.18329999999999913
130.192 0.1999999999999993
130.513 0.05000000000000071
130.834 0.18329999999999913
131.158 0.31659999999999755
131.479 0.18329999999999913
131.802 0.25
132.123 0.18329999999999913
132.446 0.1999999999999993
132.767 0.21659999999999968
133.09 0.1999999999999993
133.411 0.1999999999999993
133.733 0.16659999999999897
134.056 0.1999999999999993
134.377 0.16659999999999897
134.7 0.13329999999999842
135.021 0.1999999999999993
135.342 0.25
135.665 0.14999999999999858
135.986 0.21659999999999968
136.309 0.18329999999999913
136.63 0.28330000000000055
136.951 0.08329999999999771
137.274 0.16659999999999897
137.595 0.1999999999999993
137.918 0.21659999999999968
138.238 0.13329999999999842
138.559 0.11659999999999826
138.882 0.2666000000000004
139.203 0.21659999999999968
139.526 0.14999999999999858
139.847 0.23329999999999984
140.168 0.14999999999999858
140.491 0.14999999999999858
140.811 0.13329999999999842
141.132 0.21659999999999968
141.455 0.23329999999999984
141.776 0.16659999999999897
142.097 0.16659999999999897
142.419 0.2666000000000004
142.74 0.11659999999999826
143.061 0.13329999999999842
143.384 0.2666000000000004
143.704 0.28330000000000055
144.027 0.25
144.348 0.13329999999999842
144.668 0.23329999999999984
144.991 0.14999999999999858
145.312 0.14999999999999858
145.632 0.21659999999999968
145.955 0.18329999999999913
146.276 0.2666000000000004
146.596 0.18329999999999913
146.917 0.11659999999999826
147.24 0.2666000000000004
147.56 0.13329999999999842
147.881 0.18329999999999913
148.203 0.09999999999999787
148.524 0.25
148.844 0.13329999999999842
149.167 0.16659999999999897
149.487 0.08329999999999771
149.808 0.23329999999999984
150.131 0.14999999999999858
150.451 0.09999999999999787
150.771 0.23329999999999984
151.092 0.16659999999999897
151.414 0.14999999999999858
151.735 0.28330000000000055
152.055 0.18329999999999913
152.378 0.23329999999999984
152.698 0.1999999999999993
153.018 0.11659999999999826
153.339 0.18329999999999913
153.661 0.16659999999999897
153.982 0.3000000000000007
154.302 0.1999999999999993
154.622 0.1999999999999993
154.945 0.23329999999999984
155.265 0.14999999999999858
155.585 0.14999999999999858
155.905 0.21659999999999968
156.228 0.16659999999999897
156.548 0.14999999999999858
156.868 0.23329999999999984
157.188 0.28330000000000055
157.511 0.2666000000000004
157.831 0.13329999999999842
158.151 0.25
158.471 0.08329999999999771
158.794 0.16659999999999897
159.114 0.21659999999999968
159.434 0.18329999999999913
159.754 0.23329999999999984
160.074 0.11659999999999826
160.396 0.18329999999999913
160.717 0.14999999999999858
161.037 0.14999999999999858
161.357 0.1999999999999993
161.679 0.16659999999999897
161.999 0.16659999999999897
162.319 0.1999999999999993
162.639 0.2666000000000004
162.959 0.18329999999999913
163.281 0.1999999999999993
163.601 0.16659999999999897
163.921 0.14999999999999858
164.241 0.11659999999999826
164.561 0.23329999999999984
164.881 0.1999999999999993
165.203 0.16659999999999897
165.523 0.18329999999999913
165.843 0.18329999999999913
166.163 0.2666000000000004
166.483 0.13329999999999842
166.803 0.18329999999999913
167.125 0.23329999999999984
167.445 0.14999999999999858
167.764 0.23329999999999984
168.084 0.16659999999999897
168.404 0.14999999999999858
168.724 0.1999999999999993
169.046 0.2666000000000004
169.366 0.1999999999999993
169.685 0.23329999999999984
170.005 0.18329999999999913
170.325 0.25
170.645 0.18329999999999913
170.964 0.14999999999999858
171.286 0.14999999999999858
171.606 0.1999999999999993
171.926 0.14999999999999858
172.245 0.13329999999999842
172.565 0.1999999999999993
172.885 0.28330000000000055
173.204 0.21659999999999968
173.524 0.2666000000000004
173.846 0.14999999999999858
174.166 0.13329999999999842
174.485 0.14999999999999858
174.805 0.21659999999999968
175.124 0.1999999999999993
175.444 0.13329999999999842
175.764 0.1999999999999993
176.083 0.09999999999999787
176.403 0.2666000000000004
176.722 0.14999999999999858
177.044 0.14999999999999858
177.363 0.25
177.683 0.18329999999999913
178.002 0.13329999999999842
178.322 0.06659999999999755
178.641 0.18329999999999913
178.961 0.1999999999999993
179.28 0.18329999999999913
179.6 0.1999999999999993
179.919 0.13329999999999842
180.239 0.14999999999999858
180.558 0.2666000000000004
180.877 0.18329999999999913
181.197 0.16659999999999897
181.516 0.1999999999999993
181.838 0.28330000000000055
182.157 0.28330000000000055
182.476 0.06659999999999755
182.796 0.16659999999999897
183.115 0.1999999999999993
183.434 0.28330000000000055
183.754 0.1999999999999993
184.073 0.21659999999999968
184.392 0.21659999999999968
184.712 0.18329999999999913
185.031 0.18329999999999913
185.35 0.14999999999999858
185.669 0.23329999999999984
185.989 0.13329999999999842
186.308 0.16659999999999897
186.627 0.14999999999999858
186.946 0.16659999999999897
187.265 0.21659999999999968
187.585 0.21659999999999968
187.904 0.18329999999999913
188.223 0.18329999999999913
188.542 0.18329999999999913
188.861 0.1999999999999993
189.18 0.21659999999999968
189.499 0.16659999999999897
189.818 0.1999999999999993
190.138 0.25
190.457 0.14999999999999858
190.776 0.25
191.095 0.23329999999999984
191.414 0.1999999999999993
191.733 0.16659999999999897
192.052 0.23329999999999984
192.371 0.3332999999999977
192.69 0.18329999999999913
193.009 0.18329999999999913
193.328 0.2666000000000004
193.647 0.18329999999999913
193.966 0.25
194.285 0.16659999999999897
194.602 0.2666000000000004
194.92 0.1999999999999993
195.239 0.11659999999999826
195.558 0.1999999999999993
195.877 0.1999999999999993
196.196 0.31659999999999755
196.515 0.23329999999999984
196.834 0.1999999999999993
197.153 0.16659999999999897
197.471 0.16659999999999897
197.79 0.18329999999999913
198.109 0.18329999999999913
198.428 0.13329999999999842
198.747 0.28330000000000055
199.065 0.21659999999999968
199.382 0.3000000000000007
199.701 0.23329999999999984
200.02 0.1999999999999993
200.338 0.23329999999999984
200.657 0.21659999999999968
200.976 0.21659999999999968
201.295 0.18329999999999913
201.613 0.21659999999999968
201.932 0.25
202.251 0.14999999999999858
202.567 0.23329999999999984
202.886 0.11659999999999826
203.204 0.2666000000000004
203.523 0.2666000000000004
203.842 0.21659999999999968
204.16 0.28330000000000055
204.479 0.18329999999999913
204.797 0.18329999999999913
205.114 0.21659999999999968
205.433 0.1999999999999993
205.751 0.28330000000000055
206.07 0.18329999999999913
206.388 0.1999999999999993
206.707 0.21659999999999968
207.025 0.18329999999999913
207.342 0.34999999999999787
207.66 0.23329999999999984
207.979 0.28330000000000055
208.297 0.23329999999999984
208.615 0.14999999999999858
208.934 0.2666000000000004
209.25 0.09999999999999787
209.569 0.2666000000000004
209.887 0.16659999999999897
210.205 0.16659999999999897
210.524 0.28330000000000055
210.842 0.1999999999999993
211.158 0.1999999999999993
211.477 0.23329999999999984
211.795 0.23329999999999984
212.113 0.28330000000000055
212.432 0.1999999999999993
212.75 0.25
213.066 0.1999999999999993
213.385 0.23329999999999984
213.703 0.09999999999999787
214.021 0.21659999999999968
214.339 0.3332999999999977
214.656 0.23329999999999984
214.974 0.23329999999999984
215.292 0.3332999999999977
215.61 0.1999999999999993
215.926 0.23329999999999984
216.245 0.09999999999999787
216.563 0.28330000000000055
216.881 0.25
217.199 0.16659999999999897
217.515 0.31659999999999755
217.833 0.28330000000000055
218.151 0.23329999999999984
218.469 0.25
218.785 0.16659999999999897
219.104 0.16659999999999897
219.422 0.2666000000000004
219.74 0.13329999999999842
220.056 0.23329999999999984
220.374 0.28330000000000055
220.692 0.2666000000000004
221.01 0.25
221.326 0.16659999999999897
221.644 0.3000000000000007
221.962 0.3000000000000007
222.28 0.25
222.596 0.3000000000000007
222.914 0.31659999999999755
223.232 0.31659999999999755
223.547 0.1999999999999993
223.865 0.28330000000000055
224.183 0.16659999999999897
224.501 0.21659999999999968
224.817 0.13329999999999842
225.135 0.1999999999999993
225.453 0.3000000000000007
225.768 0.28330000000000055
226.086 0.1999999999999993
226.404 0.1999999999999993
226.722 0.28330000000000055
227.038 0.28330000000000055
227.355 0.23329999999999984
227.673 0.23329999999999984
227.989 0.28330000000000055
228.307 0.25
228.625 0.3332999999999977
228.94 0.23329999999999984
229.258 0.2666000000000004
229.576 0.3332999999999977
229.891 0.3000000000000007
230.209 0.3000000000000007
230.527 0.13329999999999842
230.842 0.2666000000000004
231.16 0.3332999999999977
231.478 0.18329999999999913
231.793 0.3000000000000007
232.111 0.18329999999999913
232.428 0.23329999999999984
232.744 0.1999999999999993
233.062 0.18329999999999913
233.379 0.18329999999999913
233.695 0.11659999999999826
234.012 0.2666000000000004
234.33 0.1999999999999993
234.645 0.28330000000000055
234.963 0.25
235.278 0.25
235.596 0.2666000000000004
235.913 0.2666000000000004
236.229 0.28330000000000055
236.546 0.23329999999999984
236.864 0.21659999999999968
237.179 0.23329999999999984
237.497 0.2666000000000004
237.812 0.2666000000000004
238.129 0.13329999999999842
238.447 0.18329999999999913
238.762 0.28330000000000055
239.08 0.16659999999999897
239.395 0.25
239.712 0.14999999999999858
240.03 0.14999999999999858
240.345 0.28330000000000055
240.662 0.21659999999999968
240.978 0.18329999999999913
241.295 0.18329999999999913
241.61 0.18329999999999913
241.927 0.2666000000000004
242.245 0.25
242.56 0.16659999999999897
242.877 0.31659999999999755
243.192 0.3000000000000007
243.51 0.31659999999999755
243.825 0.18329999999999913
244.142 0.23329999999999984
244.459 0.3000000000000007
244.774 0.14999999999999858
245.092 0.34999999999999787
245.407 0.2666000000000004
245.724 0.31659999999999755
246.039 0.3332999999999977
246.356 0.25
246.671 0.28330000000000055
246.988 0.25
247.303 0.34999999999999787
247.62 0.28330000000000055
247.938 0.28330000000000055
248.253 0.23329999999999984
248.57 0.21659999999999968
248.885 0.34999999999999787
249.202 0.14999999999999858
249.517 0.23329999999999984
249.834 0.25
250.149 0.16659999999999897
250.466 0.21659999999999968
250.781 0.16659999999999897
251.098 0.2666000000000004
251.412 0.28330000000000055
251.729 0.16659999999999897
252.044 0.34999999999999787
252.361 0.18329999999999913
252.676 0.28330000000000055
252.993 0.3000000000000007
253.308 0.18329999999999913
253.625 0.2666000000000004
253.94 0.25
254.256 0.23329999999999984
254.571 0.2666000000000004
254.888 0.2666000000000004
255.203 0.23329999999999984
255.518 0.25
255.834 0.25
256.149 0.1999999999999993
256.466 0.21659999999999968
256.781 0.25
257.097 0.23329999999999984
257.412 0.25
257.729 0.31659999999999755
258.044 0.2666000000000004
258.36 0.3000000000000007
258.675 0.21659999999999968
258.99 0.1999999999999993
259.306 0.31659999999999755
259.621 0.18329999999999913
259.938 0.3000000000000007
260.252 0.23329999999999984
260.569 0.23329999999999984
260.883 0.36659999999999826
261.198 0.23329999999999984
261.515 0.3000000000000007
261.829 0.23329999999999984
262.146 0.21659999999999968
262.46 0.31659999999999755
262.775 0.25
263.091 0.3332999999999977
263.406 0.11659999999999826
263.723 0.2666000000000004
264.037 0.23329999999999984
264.354 0.21659999999999968
264.668 0.2666000000000004
264.982 0.28330000000000055
265.299 0.25
265.613 0.25
265.928 0.23329999999999984
266.244 0.2666000000000004
266.559 0.25
266.875 0.23329999999999984
267.189 0.1999999999999993
267.504 0.28330000000000055
267.82 0.1999999999999993
268.134 0.1999999999999993
268.449 0.28330000000000055
268.765 0.2666000000000004
269.079 0.14999999999999858
269.394 0.3332999999999977
269.71 0.21659999999999968
270.024 0.3832999999999984
270.341 0.21659999999999968
270.655 0.25
270.969 0.23329999999999984
271.286 0.28330000000000055
271.6 0.23329999999999984
271.914 0.23329999999999984
272.23 0.3000000000000007
272.544 0.23329999999999984
272.859 0.21659999999999968
273.175 0.21659999999999968
273.489 0.3000000000000007
273.803 0.31659999999999755
274.119 0.1999999999999993
274.433 0.23329999999999984
274.747 0.36659999999999826
275.062 0.28330000000000055
275.378 0.2666000000000004
275.692 0.25
276.006 0.25
276.322 0.16659999999999897
276.636 0.16659999999999897
276.95 0.1999999999999993
277.266 0.23329999999999984
277.58 0.18329999999999913
277.894 0.21659999999999968
278.208 0.28330000000000055
278.524 0.36659999999999826
278.838 0.2666000000000004
279.152 0.3000000000000007
279.468 0.21659999999999968
279.782 0.21659999999999968
280.096 0.34999999999999787
280.41 0.2666000000000004
280.726 0.23329999999999984
281.04 0.28330000000000055
281.354 0.28330000000000055
281.668 0.14999999999999858
281.983 0.28330000000000055
282.297 0.23329999999999984
282.611 0.2666000000000004
282.925 0.31659999999999755
283.241 0.3332999999999977
283.555 0.28330000000000055
283.868 0.14999999999999858
284.182 0.23329999999999984
284.498 0.3000000000000007
284.812 0.3332999999999977
285.126 0.1999999999999993
285.439 0.28330000000000055
285.753 0.25
286.069 0.2666000000000004
286.383 0.2666000000000004
286.696 0.28330000000000055
287.01 0.28330000000000055
287.326 0.3000000000000007
287.639 0.21659999999999968
287.953 0.14999999999999858
288.267 0.28330000000000055
288.58 0.1999999999999993
288.896 0.3332999999999977
289.21 0.2666000000000004
289.523 0.25
289.837 0.1999999999999993
290.15 0.21659999999999968
290.466 0.3332999999999977
290.78 0.25
291.093 0.18329999999999913
291.407 0.23329999999999984
291.72 0.2666000000000004
292.034 0.2666000000000004
292.349 0.25
292.663 0.31659999999999755
292.976 0.13329999999999842
293.29 0.25
293.603 0.2666000000000004
293.917 0.1999999999999993
294.232 0.25
294.546 0.21659999999999968
294.859 0.21659999999999968
295.172 0.3999999999999986
295.486 0.14999999999999858
295.799 0.3332999999999977
296.113 0.23329999999999984
296.428 0.21659999999999968
296.741 0.23329999999999984
297.055 0.28330000000000055
297.368 0.21659999999999968
297.681 0.25152803303650373
297.995 0.2498951117353485
298.308 0.2540156330072705
298.621 0.2526365761488769
298.937 0.24993760146625732
299.25 0.25260067482847504
299.563 0.2525414805067463
299.876 0.3332999999999977
300.19 0.28330000000000055
300.503 0.28330000000000055
300.816 0.21659999999999968
301.129 0.2666000000000004
301.442 0.23329999999999984
301.756 0.25
302.071 0.21659999999999968
302.384 0.2666000000000004
302.697 0.23329999999999984
303.01 0.3000000000000007
303.323 0.16659999999999897
303.637 0.25
303.95 0.28330000000000055
304.263 0.2666000000000004
304.576 0.1999999999999993
304.889 0.3000000000000007
305.202 0.16659999999999897
305.515 0.21659999999999968
305.828 0.31659999999999755
306.141 0.2666000000000004
306.456 0.18329999999999913
306.769 0.3832999999999984
307.082 0.2666000000000004
307.395 0.1999999999999993
307.708 0.21659999999999968
308.021 0.1999999999999993
308.334 0.21659999999999968
308.647 0.23329999999999984
308.96 0.23329999999999984
309.273 0.1999999999999993
309.586 0.1999999999999993
309.899 0.2666000000000004
310.212 0.21659999999999968
310.525 0.28330000000000055
310.838 0.16659999999999897
311.15 0.31659999999999755
311.463 0.23329999999999984
311.776 0.18329999999999913
312.089 0.3000000000000007
312.402 0.34999999999999787
312.715 0.3000000000000007
313.027 0.3332999999999977
313.34 0.2666000000000004
313.653 0.16659999999999897
313.966 0.25
314.278 0.3000000000000007
314.591 0.3000000000000007
314.904 0.25
315.217 0.1999999999999993
315.529 0.18329999999999913
315.842 0.1999999999999993
316.155 0.2666000000000004
316.467 0.1999999999999993
316.78 0.18329999999999913
317.093 0.3000000000000007
317.405 0.28330000000000055
317.718 0.3332999999999977
318.031 0.18329999999999913
318.343 0.3332999999999977
318.656 0.18329999999999913
318.969 0.21659999999999968
319.281 0.34999999999999787
319.592 0.1999999999999993
319.904 0.34999999999999787
320.217 0.1999999999999993
320.529 0.2666000000000004
320.842 0.3332999999999977
321.154 0.2666000000000004
321.467 0.28330000000000055
321.779 0.28330000000000055
322.092 0.2666000000000004
322.404 0.2666000000000004
322.717 0.08329999999999771
323.029 0.3999999999999986
323.342 0.25
323.654 0.28330000000000055
323.965 0.28330000000000055
324.277 0.2666000000000004
324.589 0.36659999999999826
324.902 0.25
325.214 0.3000000000000007
325.527 0.28330000000000055
325.839 0.25
326.151 0.31659999999999755
326.464 0.3832999999999984
326.776 0.31659999999999755
327.086 0.2666000000000004
327.399 0.34999999999999787
327.711 0.2666000000000004
328.023 0.25
328.335 0.34999999999999787
328.648 0.4499999999999993
328.96 0.3000000000000007
329.27 0.41659999999999897
329.582 0.34999999999999787
329.895 0.5
330.207 0.36659999999999826
330.519 0.3332999999999977
330.831 0.41659999999999897
331.143 0.34999999999999787
331.454 0.36659999999999826
331.766 0.3999999999999986
332.078 0.3000000000000007
332.39 0.3332999999999977
332.702 0.28330000000000055
333.014 0.43329999999999913
333.326 0.3999999999999986
333.636 0.36659999999999826
333.948 0.4499999999999993
334.261 0.23329999999999984
334.573 0.36659999999999826
334.885 0.2666000000000004
335.195 0.34999999999999787
335.507 0.36659999999999826
335.819 0.3000000000000007
336.131 0.34999999999999787
336.443 0.2666000000000004
336.753 0.3332999999999977
337.065 0.21659999999999968
337.377 0.13329999999999842
337.689 0.3000000000000007
338.001 0.1999999999999993
338.31 0.18329999999999913
338.622 0.21659999999999968
338.934 0.28330000000000055
339.246 0.34999999999999787
339.558 0.3000000000000007
339.868 0.36659999999999826
340.18 0.34999999999999787
340.492 0.2666000000000004
340.804 0.28330000000000055
341.113 0.2666000000000004
341.425 0.3332999999999977
341.737 0.31659999999999755
342.049 0.2666000000000004
342.361 0.3000000000000007
342.67 0.41659999999999897
342.982 0.36659999999999826
343.294 0.31659999999999755
343.606 0.1999999999999993
343.915 0.31659999999999755
344.227 0.3332999999999977
344.539 0.28330000000000055
344.849 0.3832999999999984
345.16 0.3832999999999984
345.472 0.2666000000000004
345.784 0.34999999999999787
346.093 0.1999999999999993
346.405 0.2666000000000004
346.717 0.3332999999999977
347.028 0.28330000000000055
347.338 0.31659999999999755
347.649 0.34999999999999787
347.961 0.36659999999999826
348.271 0.3000000000000007
348.582 0.34999999999999787
348.894 0.36659999999999826
349.205 0.28330000000000055
349.515 0.25
349.826 0.14999999999999858
350.138 0.3999999999999986
350.447 0.28330000000000055
350.759 0.3832999999999984
351.07 0.3000000000000007
351.38 0.31659999999999755
351.691 0.31659999999999755
352.003 0.36659999999999826
352.312 0.43329999999999913
352.624 0.3000000000000007
352.935 0.36659999999999826
353.245 0.3832999999999984
353.556 0.28330000000000055
353.867 0.36659999999999826
354.177 0.3000000000000007
354.488 0.3000000000000007
354.799 0.18329999999999913
355.109 0.34999999999999787
355.42 0.3000000000000007
355.732 0.3332999999999977
356.041 0.28330000000000055
356.352 0.36659999999999826
356.663 0.28330000000000055
356.973 0.2666000000000004
357.284 0.31659999999999755
357.593 0.28330000000000055
357.905 0.36659999999999826
358.216 0.21659999999999968
358.525 0.3832999999999984
358.836 0.16659999999999897
359.147 0.2666000000000004
359.457 0.36659999999999826
359.768 0.2666000000000004
360.077 0.23329999999999984
360.388 0.1999999999999993
360.699 0.3832999999999984
361.008 0.3000000000000007
361.32 0.28330000000000055
361.629 0.3332999999999977
361.94 0.2666000000000004
362.251 0.3999999999999986
362.56 0.36659999999999826
362.871 0.23329999999999984
363.18 0.28330000000000055
363.491 0.31659999999999755
363.8 0.3332999999999977
364.111 0.34999999999999787
364.422 0.25
364.731 0.2666000000000004
365.042 0.3000000000000007
365.351 0.21659999999999968
365.662 0.41659999999999897
365.971 0.16659999999999897
366.282 0.36659999999999826
366.593 0.2666000000000004
366.902 0.23329999999999984
367.213 0.21659999999999968
367.522 0.34999999999999787
367.833 0.2666000000000004
368.142 0.36659999999999826
368.453 0.25
368.762 0.28330000000000055
369.073 0.18329999999999913
369.381 0.34999999999999787
369.692 0.28330000000000055
370.001 0.31659999999999755
370.312 0.3000000000000007
370.623 0.1999999999999993
370.932 0.28330000000000055
371.242 0.23329999999999984
371.551 0.21659999999999968
371.862 0.25
372.171 0.3000000000000007
372.482 0.34999999999999787
372.79 0.21659999999999968
373.101 0.34999999999999787
373.41 0.25
373.721 0.16659999999999897
374.029 0.41659999999999897
374.34 0.3332999999999977
374.649 0.28330000000000055
374.959 0.2666000000000004
375.268 0.2666000000000004
375.577 0.3832999999999984
375.887 0.21659999999999968
376.196 0.25
376.506 0.3832999999999984
376.815 0.3000000000000007
377.126 0.3332999999999977
377.434 0.25
377.745 0.43329999999999913
378.053 0.2666000000000004
378.364 0.28330000000000055
378.672 0.3332999999999977
378.983 0.34999999999999787
379.292 0.3832999999999984
379.6 0.3000000000000007
379.911 0.3832999999999984
380.219 0.3999999999999986
380.53 0.2666000000000004
380.838 0.3999999999999986
381.148 0.3999999999999986
381.457 0.2666000000000004
381.767 0.3332999999999977
382.076 0.25
382.384 0.36659999999999826
382.695 0.2666000000000004
383.003 0.3332999999999977
383.313 0.28330000000000055
383.622 0.34999999999999787
383.93 0.3332999999999977
384.24 0.41659999999999897
384.549 0.25
384.859 0.28330000000000055
385.167 0.28330000000000055
385.476 0.4665999999999997
385.786 0.25
386.094 0.34999999999999787
386.405 0.3000000000000007
386.713 0.31659999999999755
387.021 0.28330000000000055
387.331 0.3332999999999977
387.64 0.28330000000000055
387.948 0.48329999999999984
388.258 0.25
388.566 0.3332999999999977
388.877 0.3832999999999984
389.185 0.28330000000000055
389.493 0.3832999999999984
389.803 0.3332999999999977
390.111 0.3000000000000007
390.419 0.28330000000000055
390.729 0.31659999999999755
391.038 0.43329999999999913
391.346 0.2666000000000004
391.656 0.28330000000000055
391.964 0.3332999999999977
392.272 0.3832999999999984
392.582 0.34999999999999787
392.89 0.36659999999999826
393.198 0.4499999999999993
393.508 0.1999999999999993
393.816 0.25
394.124 0.3332999999999977
394.434 0.3332999999999977
394.742 0.3832999999999984
395.05 0.25
395.36 0.2666000000000004
395.668 0.3832999999999984
395.976 0.28330000000000055
396.286 0.34999999999999787
396.594 0.3000000000000007
396.902 0.34999999999999787
397.21 0.3332999999999977
397.52 0.34999999999999787
397.828 0.3332999999999977
398.135 0.31659999999999755
398.445 0.43329999999999913
398.753 0.28330000000000055
399.061 0.3000000000000007
399.369 0.31659999999999755
399.679 0.3999999999999986
399.987 0.3832999999999984
400.294 0.34999999999999787
400.604 0.31659999999999755
400.912 0.3332999999999977
401.22 0.25
401.527 0.3000000000000007
401.837 0.4665999999999997
402.145 0.28330000000000055
402.453 0.31659999999999755
402.76 0.43329999999999913
403.07 0.3999999999999986
403.378 0.3832999999999984
403.686 0.36659999999999826
403.993 0.34999999999999787
404.303 0.34999999999999787
404.611 0.3332999999999977
404.918 0.3999999999999986
405.226 0.43329999999999913
405.533 0.41659999999999897
405.843 0.28330000000000055
406.151 0.41659999999999897
406.458 0.34999999999999787
406.766 0.4499999999999993
407.076 0.3999999999999986
407.383 0.48329999999999984
407.691 0.3000000000000007
407.998 0.31659999999999755
408.306 0.3999999999999986
408.615 0.3332999999999977
408.923 0.4665999999999997
409.23 0.34999999999999787
409.538 0.41659999999999897
409.845 0.36659999999999826
410.153 0.5333000000000006
410.462 0.25
410.77 0.3832999999999984
411.077 0.3332999999999977
411.384 0.48329999999999984
411.692 0.4499999999999993
412.001 0.34999999999999787
412.309 0.5333000000000006
412.616 0.43329999999999913
412.923 0.3832999999999984
413.231 0.5500000000000007
413.538 0.4665999999999997
413.845 0.5500000000000007
414.155 0.4665999999999997
414.462 0.5667420260386713
414.769 0.7867704636312816
415.077 0.7624769044182926
415.384 0.9928580197248245
415.691 0.7374298176934957
415.999 0.8546874411194629
416.308 1.0480897726369314
416.615 0.8561676352956766
416.922 0.7332999999999998
417.23 0.6832999999999991
417.537 0.7165999999999997
417.844 0.5999999999999979
418.151 0.6832999999999991
418.458 0.8165999999999976
418.768 0.6999999999999993
419.075 1.0333000000000006
419.382 0.8832999999999984
419.689 0.6832999999999991
419.996 0.9499999999999993
420.303 0.8999999999999986
420.61 0.9332999999999991
420.918 1.0166000000000004
421.225 0.8999999999999986
421.532 1.1999999999999993
421.841 1.1332999999999984
422.148 1.25
422.455 1.0832999999999977
422.762 1.2165999999999997
423.069 1.0832999999999977
423.376 1.1999999999999993
423.683 1.5333000000000006
423.99 1.4332999999999991
424.297 1.416599999999999
424.604 1.3832999999999984
424.911 1.2833000000000006
425.218 1.2666000000000004
425.525 1.5166000000000004
425.832 1.3165999999999976
426.139 1.1832999999999991
426.446 1.2666000000000004
426.753 1.25
427.061 1.0999999999999979
427.368 1.1165999999999983
427.675 1.0500000000000007
427.982 1.0166000000000004
428.289 1.0665999999999976
428.596 1.166599999999999
428.903 0.9665999999999997
429.209 1.0
429.516 0.8499999999999979
429.823 1.0333000000000006
430.13 0.8832999999999984
430.437 0.8332999999999977
430.743 0.8499999999999979
431.05 0.9499999999999993
431.357 0.7666000000000004
431.664 0.75
431.97 0.8665999999999983
432.277 0.5999999999999979
432.584 0.7165999999999997
432.891 0.5665999999999976
433.197 0.6165999999999983
433.504 0.666599999999999
433.811 0.6832999999999991
434.117 0.666599999999999
434.424 0.6332999999999984
434.731 0.5500000000000007
435.037 0.5500000000000007
435.344 0.6499999999999986
435.65 0.5665999999999976
435.957 0.5166000000000004
436.262 0.5832999999999977
436.568 0.6832999999999991
436.875 0.4665999999999997
437.181 0.6332999999999984
437.488 0.5333000000000006
437.794 0.3832999999999984
438.101 0.41659999999999897
438.407 0.5999999999999979
438.714 0.48329999999999984
439.02 0.48329999999999984
439.327 0.41659999999999897
439.633 0.4665999999999997
439.94 0.4665999999999997
440.246 0.5999999999999979
440.553 0.41659999999999897
440.859 0.41659999999999897
441.163 0.4665999999999997
441.47 0.41659999999999897
441.776 0.3999999999999986
442.083 0.5166000000000004
442.389 0.34999999999999787
442.695 0.41659999999999897
443.002 0.3832999999999984
443.308 0.3999999999999986
443.614 0.5
443.921 0.43329999999999913
444.225 0.4499999999999993
444.531 0.41659999999999897
444.838 0.3332999999999977
445.144 0.48329999999999984
445.45 0.3999999999999986
445.757 0.43329999999999913
446.063 0.41659999999999897
446.369 0.3332999999999977
446.675 0.4499999999999993
446.979 0.3832999999999984
447.286 0.6165999999999983
447.592 0.43329999999999913
447.898 0.43329999999999913
448.204 0.5999999999999979
448.51 0.41659999999999897
448.817 0.4499999999999993
449.121 0.3332999999999977
449.427 0.2666000000000004
449.733 0.48329999999999984
450.039 0.36659999999999826
450.345 0.43329999999999913
450.651 0.43329999999999913
450.955 0.3999999999999986
451.261 0.5166000000000004
451.568 0.5166000000000004
451.874 0.5
452.18 0.3832999999999984
452.486 0.4665999999999997
452.79 0.4665999999999997
453.096 0.43329999999999913
453.402 0.43329999999999913
453.708 0.48329999999999984
454.014 0.48329999999999984
454.318 0.41659999999999897
454.624 0.41659999999999897
454.93 0.3999999999999986
455.236 0.43329999999999913
455.541 0.5
455.845 0.4665999999999997
456.151 0.5333000000000006
456.457 0.3999999999999986
456.763 0.31659999999999755
457.067 0.5333000000000006
457.373 0.41659999999999897
457.679 0.43329999999999913
457.985 0.3832999999999984
458.29 0.3999999999999986
458.594 0.3832999999999984
458.9 0.3332999999999977
459.206 0.4499999999999993
459.512 0.4499999999999993
459.815 0.36659999999999826
460.121 0.3000000000000007
460.427 0.4499999999999993
460.733 0.3832999999999984
461.036 0.41659999999999897
461.342 0.41659999999999897
461.648 0.2666000000000004
461.954 0.5
462.257 0.36659999999999826
462.563 0.3832999999999984
462.869 0.36659999999999826
463.172 0.3999999999999986
463.478 0.3332999999999977
463.784 0.43329999999999913
464.089 0.34999999999999787
464.393 0.31659999999999755
464.699 0.3832999999999984
465.004 0.43329999999999913
465.308 0.43329999999999913
465.613 0.36659999999999826
465.919 0.3999999999999986
466.225 0.34999999999999787
466.528 0.3332999999999977
466.834 0.43329999999999913
467.139 0.3832999999999984
467.443 0.36659999999999826
467.748 0.3000000000000007
468.054 0.3832999999999984
468.357 0.3832999999999984
468.663 0.31659999999999755
468.968 0.41659999999999897
469.272 0.4665999999999997
469.577 0.41659999999999897
469.883 0.34999999999999787
470.186 0.3332999999999977
470.492 0.3000000000000007
470.797 0.2666000000000004
471.1 0.31659999999999755
471.406 0.28330000000000055
471.711 0.48329999999999984
472.014 0.31659999999999755
472.32 0.34999999999999787
472.625 0.43329999999999913
472.929 0.3832999999999984
473.234 0.28330000000000055
473.539 0.48329999999999984
473.843 0.41659999999999897
474.148 0.28330000000000055
474.451 0.34999999999999787
474.756 0.4665999999999997
475.062 0.4665999999999997
475.365 0.4665999999999997
475.67 0.3999999999999986
475.973 0.3999999999999986
476.279 0.5166000000000004
476.584 0.41659999999999897
476.887 0.5665999999999976
477.192 0.5333000000000006
477.498 0.5166000000000004
477.801 0.5166000000000004
478.106 0.7833000000000006
478.409 0.8999999999999986
478.714 0.8000000000000007
479.017 0.7666000000000004
479.322 0.8665999999999983
479.628 0.9665999999999997
479.931 0.9499999999999993
480.236 0.7666000000000004
480.539 0.8000000000000007
480.844 0.6832999999999991
481.147 0.8332999999999977
481.452 0.916599999999999
481.757 1.0166000000000004
482.06 0.8832999999999984
482.365 0.8000000000000007
482.668 0.916599999999999
482.973 0.6832999999999991
483.276 0.8332999999999977
483.581 0.6832999999999991
483.884 0.6999999999999993
484.189 0.666599999999999
484.494 0.6499999999999986
484.797 0.4665999999999997
485.102 0.41659999999999897
485.405 0.43329999999999913
485.71 0.5
486.013 0.48329999999999984
486.318 0.3999999999999986
486.621 0.5
486.925 0.4665999999999997
487.228 0.3332999999999977
487.533 0.3832999999999984
487.836 0.3999999999999986
488.141 0.34999999999999787
488.444 0.43329999999999913
488.748 0.3999999999999986
489.051 0.36659999999999826
489.356 0.36659999999999826
489.659 0.41659999999999897
489.964 0.3832999999999984
490.266 0.3000000000000007
490.571 0.48329999999999984
490.874 0.3999999999999986
491.179 0.48329999999999984
491.481 0.41659999999999897
491.786 0.34999999999999787
492.089 0.28330000000000055
492.393 0.36659999999999826
492.696 0.3000000000000007
493.001 0.3000000000000007
493.303 0.3332999999999977
493.606 0.2666000000000004
493.911 0.3332999999999977
494.213 0.2666000000000004
494.518 0.36659999999999826
494.821 0.28330000000000055
495.125 0.3999999999999986
495.428 0.25
495.732 0.28330000000000055
496.035 0.43329999999999913
496.337 0.43329999999999913
496.642 0.23329999999999984
496.945 0.28330000000000055
497.249 0.34999999999999787
497.552 0.31659999999999755
497.856 0.3332999999999977
498.159 0.34999999999999787
498.461 0.1999999999999993
498.766 0.41659999999999897
499.068 0.16659999999999897
499.372 0.3332999999999977
499.675 0.25
499.977 0.31659999999999755
500.282 0.31659999999999755
500.584 0.34999999999999787
500.889 0.43329999999999913
501.191 0.34999999999999787
501.493 0.28330000000000055
501.798 0.3832999999999984
502.1 0.3332999999999977
502.402 0.31659999999999755
502.707 0.28330000000000055
503.009 0.3832999999999984
503.314 0.34999999999999787
503.616 0.23329999999999984
503.918 0.2666000000000004
504.222 0.21659999999999968
504.525 0.3999999999999986
504.827 0.31659999999999755
505.131 0.31659999999999755
505.433 0.4665999999999997
505.736 0.34999999999999787
506.04 0.36659999999999826
506.342 0.34999999999999787
506.646 0.3332999999999977
506.949 0.3332999999999977
507.251 0.25
507.555 0.31659999999999755
507.857 0.3999999999999986
508.159 0.3332999999999977
508.461 0.36659999999999826
508.766 0.3999999999999986
509.068 0.3832999999999984
509.37 0.3332999999999977
509.674 0.3000000000000007
509.976 0.3332999999999977
510.278 0.28330000000000055
510.582 0.31659999999999755
510.884 0.3332999999999977
511.186 0.3000000000000007
511.49 0.2666000000000004
511.792 0.16659999999999897
512.094 0.28330000000000055
512.396 0.36659999999999826
512.701 0.25
513.003 0.3832999999999984
513.305 0.28330000000000055
513.609 0.34999999999999787
513.91 0.31659999999999755
514.212 0.4499999999999993
514.514 0.3832999999999984
514.818 0.41659999999999897
515.12 0.3999999999999986
515.422 0.43329999999999913
515.724 0.25
516.028 0.28330000000000055
516.33 0.21659999999999968
516.632 0.31659999999999755
516.934 0.36659999999999826
517.237 0.34999999999999787
517.539 0.3332999999999977
517.841 0.36659999999999826
518.143 0.3332999999999977
518.447 0.3999999999999986
518.749 0.3832999999999984
519.05 0.48329999999999984
519.352 0.34999999999999787
519.656 0.31659999999999755
519.958 0.3999999999999986
520.26 0.4665999999999997
520.561 0.2666000000000004
520.863 0.3999999999999986
521.167 0.3000000000000007
521.468 0.36659999999999826
521.77 0.3000000000000007
522.072 0.3832999999999984
522.376 0.31659999999999755
522.677 0.28330000000000055
522.979 0.34999999999999787
523.281 0.31659999999999755
523.582 0.3832999999999984
523.884 0.34999999999999787
524.187 0.43329999999999913
524.489 0.3999999999999986
524.791 0.41659999999999897
525.092 0.25
525.394 0.3000000000000007
525.697 0.5166000000000004
525.999 0.31659999999999755
526.301 0.2666000000000004
526.602 0.3832999999999984
526.904 0.36659999999999826
527.205 0.34999999999999787
527.507 0.36659999999999826
527.81 0.3832999999999984
528.112 0.36659999999999826
528.413 0.34999999999999787
528.715 0.31659999999999755
529.016 0.3332999999999977
529.318 0.25
529.619 0.34999999999999787
529.922 0.34999999999999787
530.224 0.2666000000000004
530.525 0.36659999999999826
530.827 0.23329999999999984
531.128 0.36659999999999826
531.429 0.3832999999999984
531.731 0.3000000000000007
532.032 0.3332999999999977
532.336 0.28330000000000055
532.637 0.5
532.938 0.3000000000000007
533.24 0.34999999999999787
533.541 0.3332999999999977
533.842 0.21659999999999968
534.143 0.43329999999999913
534.445 0.36659999999999826
534.746 0.36659999999999826
535.047 0.28330000000000055
535.351 0.3832999999999984
535.652 0.48329999999999984
535.953 0.3832999999999984
536.254 0.34999999999999787
536.555 0.2666000000000004
536.857 0.23329999999999984
537.158 0.3832999999999984
537.459 0.3332999999999977
537.76 0.25
538.061 0.3332999999999977
538.362 0.4665999999999997
538.664 0.36659999999999826
538.965 0.3832999999999984
539.266 0.25
539.567 0.34999999999999787
539.868 0.34999999999999787
540.169 0.5
540.472 0.3832999999999984
540.773 0.3999999999999986
541.074 0.31659999999999755
541.375 0.43329999999999913
541.677 0.4665999999999997
541.978 0.3832999999999984
542.279 0.4499999999999993
542.58 0.36659999999999826
542.881 0.4499999999999993
543.182 0.23329999999999984
543.483 0.31659999999999755
543.784 0.36659999999999826
544.085 0.3000000000000007
544.385 0.3999999999999986
544.686 0.3999999999999986
544.987 0.31659999999999755
545.288 0.34999999999999787
545.589 0.3832999999999984
545.89 0.36659999999999826
546.191 0.43329999999999913
546.492 0.28330000000000055
546.793 0.2666000000000004
547.094 0.3999999999999986
547.394 0.43329999999999913
547.695 0.3000000000000007
547.996 0.3000000000000007
548.297 0.4665999999999997
548.596 0.34999999999999787
548.897 0.5333000000000006
549.197 0.4665999999999997
549.498 0.43329999999999913
549.799 0.43329999999999913
550.1 0.3999999999999986
550.4 0.41659999999999897
550.701 0.43329999999999913
551.002 0.43329999999999913
551.303 0.3999999999999986
551.603 0.43329999999999913
551.904 0.5
552.205 0.6332999999999984
552.505 0.5333000000000006
552.806 0.5
553.107 0.666599999999999
553.407 0.5333000000000006
553.706 0.4665999999999997
554.007 0.5500000000000007
554.307 0.5333000000000006
554.608 0.3999999999999986
554.909 0.5500000000000007
555.209 0.3832999999999984
555.51 0.5999999999999979
555.81 0.6165999999999983
556.111 0.5500000000000007
556.411 0.5832999999999977
556.71 0.5832999999999977
557.01 0.5500000000000007
557.311 0.5
557.612 0.5166000000000004
557.912 0.5999999999999979
558.213 0.5665999999999976
558.513 0.41659999999999897
558.813 0.5333000000000006
559.112 0.41659999999999897
559.412 0.3832999999999984
559.713 0.5
560.013 0.3832999999999984
560.314 0.5333000000000006
560.614 0.34999999999999787
560.914 0.5500000000000007
561.213 0.5333000000000006
561.513 0.3332999999999977
561.814 0.48329999999999984
562.114 0.36659999999999826
562.414 0.3999999999999986
562.715 0.41659999999999897
563.015 0.48329999999999984
563.313 0.41659999999999897
563.614 0.3832999999999984
563.914 0.48329999999999984
564.214 0.3832999999999984
564.515 0.4499999999999993
564.813 0.34999999999999787
565.113 0.3332999999999977
565.413 0.36659999999999826
565.714 0.43329999999999913
566.014 0.5500000000000007
566.312 0.3000000000000007
566.612 0.36659999999999826
566.912 0.5333000000000006
567.213 0.28330000000000055
567.513 0.4665999999999997
567.811 0.36659999999999826
568.111 0.4499999999999993
568.411 0.4665999999999997
568.712 0.41659999999999897
569.012 0.36659999999999826
569.31 0.3832999999999984
569.61 0.41659999999999897
569.91 0.5166000000000004
570.21 0.3000000000000007
570.508 0.4499999999999993
570.808 0.4665999999999997
571.108 0.3332999999999977
571.408 0.4499999999999993
571.706 0.3000000000000007
572.006 0.4499999999999993
572.306 0.43329999999999913
572.607 0.3832999999999984
572.904 0.4499999999999993
573.204 0.34999999999999787
573.505 0.31659999999999755
573.805 0.3000000000000007
574.102 0.31659999999999755
574.402 0.28330000000000055
574.702 0.18329999999999913
575.002 0.3832999999999984
575.3 0.3999999999999986
575.6 0.34999999999999787
575.9 0.43329999999999913
576.198 0.3000000000000007
576.498 0.3832999999999984
576.798 0.34999999999999787
577.098 0.3000000000000007
577.395 0.34999999999999787
577.695 0.3832999999999984
577.995 0.31659999999999755
578.293 0.34999999999999787
578.593 0.3999999999999986
578.893 0.3999999999999986
579.19 0.3000000000000007
579.49 0.28330000000000055
579.79 0.28330000000000055
580.088 0.28330000000000055
580.387 0.3832999999999984
580.687 0.2666000000000004
580.985 0.3332999999999977
581.285 0.28330000000000055
581.584 0.25
581.882 0.4499999999999993
582.182 0.34999999999999787
582.482 0.3332999999999977
582.779 0.3999999999999986
583.079 0.3332999999999977
583.378 0.36659999999999826
583.676 0.28330000000000055
583.976 0.31659999999999755
584.275 0.31659999999999755
584.573 0.4499999999999993
584.873 0.3832999999999984
585.17 0.28330000000000055
585.47 0.48329999999999984
585.769 0.31659999999999755
586.067 0.36659999999999826
586.367 0.35549410867048437
586.666 0.3538913913465791
586.964 0.348961618892929
587.263 0.3456626339098783
587.561 0.34809675468971335
587.86 0.34978142652611766
588.16 0.3683130184727652
588.457 0.3607211681644671
588.757 0.3999999999999986
589.054 0.3832999999999984
589.354 0.4665999999999997
589.653 0.18329999999999913
589.951 0.3332999999999977
590.25 0.28330000000000055
590.547 0.3832999999999984
590.847 0.3000000000000007
591.144 0.3332999999999977
591.444 0.36659999999999826
591.743 0.34999999999999787
592.04 0.34999999999999787
592.34 0.36659999999999826
592.637 0.23329999999999984
592.936 0.3832999999999984
593.234 0.3000000000000007
593.533 0.48329999999999984
593.832 0.34999999999999787
594.13 0.31659999999999755
594.429 0.36659999999999826
594.726 0.3999999999999986
595.026 0.4499999999999993
595.323 0.31659999999999755
595.622 0.3999999999999986
595.919 0.1999999999999993
596.219 0.3332999999999977
596.516 0.34999999999999787
596.815 0.34999999999999787
597.112 0.43329999999999913
597.411 0.43329999999999913
597.709 0.41659999999999897
598.008 0.3832999999999984
598.305 0.36659999999999826
598.604 0.23329999999999984
598.901 0.31659999999999755
599.2 0.36659999999999826
599.497 0.36659999999999826
599.797 0.36659999999999826
600.094 0.43329999999999913
600.393 0.3999999999999986
600.69 0.3332999999999977
600.989 0.3999999999999986
601.286 0.34999999999999787
601.585 0.31659999999999755
601.882 0.3832999999999984
602.181 0.5
602.478 0.3000000000000007
602.777 0.3999999999999986
603.074 0.31659999999999755
603.373 0.3332999999999977
603.67 0.3000000000000007
603.969 0.3332999999999977
604.266 0.3332999999999977
604.563 0.3332999999999977
604.862 0.36659999999999826
605.159 0.3332999999999977
605.458 0.5166000000000004
605.755 0.34999999999999787
606.054 0.3000000000000007
606.351 0.34999999999999787
606.65 0.31659999999999755
606.946 0.3332999999999977
607.243 0.4665999999999997
607.542 0.43329999999999913
607.839 0.3832999999999984
608.138 0.3332999999999977
608.435 0.4665999999999997
608.732 0.3832999999999984
609.03 0.36659999999999826
609.327 0.3999999999999986
609.626 0.3832999999999984
609.923 0.43329999999999913
610.22 0.5
610.518 0.5665999999999976
610.815 0.34999999999999787
611.114 0.41659999999999897
611.411 0.5333000000000006
611.707 0.34999999999999787
612.006 0.48329999999999984
612.303 0.41659999999999897
612.601 0.5
612.898 0.5832999999999977
613.195 0.4499999999999993
613.493 0.5999999999999979
613.79 0.5166000000000004
614.087 0.5166000000000004
614.385 0.3999999999999986
614.682 0.43329999999999913
614.979 0.3832999999999984
615.277 0.5500000000000007
615.574 0.3832999999999984
615.87 0.4665999999999997
616.169 0.4665999999999997
616.466 0.5166000000000004
616.764 0.3332999999999977
617.061 0.5166000000000004
617.357 0.3999999999999986
617.656 0.3332999999999977
617.952 0.3999999999999986
618.249 0.4499999999999993
618.545 0.3999999999999986
618.844 0.41659999999999897
619.14 0.34999999999999787
619.437 0.3999999999999986
619.735 0.41659999999999897
620.032 0.36659999999999826
620.328 0.4499999999999993
620.626 0.3000000000000007
620.923 0.5166000000000004
621.219 0.36659999999999826
621.518 0.43329999999999913
621.814 0.31659999999999755
622.11 0.3832999999999984
622.407 0.4499999999999993
622.705 0.2666000000000004
623.002 0.25
623.298 0.3999999999999986
623.594 0.5
623.893 0.3832999999999984
624.189 0.3832999999999984
624.485 0.3832999999999984
624.784 0.3832999999999984
625.08 0.3000000000000007
625.376 0.41659999999999897
625.672 0.3999999999999986
625.971 0.41659999999999897
626.267 0.34999999999999787
626.563 0.41659999999999897
626.859 0.3832999999999984
627.158 0.34999999999999787
627.454 0.3999999999999986
627.75 0.4665999999999997
628.046 0.36659999999999826
628.342 0.3999999999999986
628.641 0.4499999999999993
628.937 0.34999999999999787
629.233 0.3999999999999986
629.529 0.3332999999999977
629.827 0.34999999999999787
630.123 0.36659999999999826
630.419 0.4499999999999993
630.715 0.43329999999999913
631.011 0.3832999999999984
631.31 0.5
631.606 0.3999999999999986
631.902 0.3000000000000007
632.198 0.3999999999999986
632.494 0.3332999999999977
632.792 0.43329999999999913
633.088 0.3000000000000007
633.384 0.4665999999999997
633.68 0.3000000000000007
633.976 0.34999999999999787
634.272 0.4499999999999993
634.57 0.31659999999999755
634.866 0.36659999999999826
635.162 0.2666000000000004
635.458 0.34999999999999787
635.754 0.3832999999999984
636.05 0.31659999999999755
636.347 0.31659999999999755
636.643 0.3832999999999984
636.939 0.31659999999999755
637.235 0.4665999999999997
637.531 0.28330000000000055
637.827 0.41659999999999897
638.123 0.31659999999999755
638.421 0.36659999999999826
638.716 0.2666000000000004
639.012 0.31659999999999755
639.308 0.3000000000000007
639.604 0.3000000000000007
639.9 0.28330000000000055
640.195 0.41659999999999897
640.491 0.34999999999999787
640.789 0.4665999999999997
641.085 0.3999999999999986
641.381 0.43329999999999913
641.676 0.3000000000000007
641.972 0.3832999999999984
642.268 0.4665999999999997
642.563 0.3000000000000007
642.859 0.3832999999999984
643.155 0.3332999999999977
643.451 0.3999999999999986
643.746 0.34999999999999787
644.044 0.2666000000000004
644.34 0.3999999999999986
644.635 0.48329999999999984
644.931 0.2666000000000004
645.227 0.43329999999999913
645.522 0.3000000000000007
645.818 0.3832999999999984
646.113 0.41659999999999897
646.409 0.36659999999999826
646.704 0.3999999999999986
647.0 0.4499999999999993
647.296 0.4665999999999997
647.591 0.28330000000000055
647.887 0.36659999999999826
648.182 0.4499999999999993
648.478 0.43329999999999913
648.773 0.3832999999999984
649.069 0.43329999999999913
649.366 0.3000000000000007
649.662 0.5166000000000004
649.957 0.34999999999999787
650.253 0.3832999999999984
650.548 0.5333000000000006
650.844 0.34999999999999787
651.139 0.4665999999999997
651.434 0.4665999999999997
651.73 0.4499999999999993
652.025 0.48329999999999984
652.321 0.3832999999999984
652.616 0.43329999999999913
652.911 0.48329999999999984
653.207 0.4499999999999993
653.502 0.4665999999999997
653.797 0.3999999999999986
654.093 0.4499999999999993
654.388 0.3832999999999984
654.683 0.3999999999999986
654.979 0.5665999999999976
655.274 0.5999999999999979
655.567 0.3999999999999986
655.863 0.5333000000000006
656.158 0.4665999999999997
656.453 0.5665999999999976
656.748 0.5832999999999977
657.044 0.5500000000000007
657.339 0.4665999999999997
657.634 0.5832999999999977
657.929 0.48329999999999984
658.224 0.6165999999999983
658.52 0.6165999999999983
658.815 0.5
659.11 0.6499999999999986
659.405 0.6499999999999986
659.7 0.5999999999999979
659.995 0.6832999999999991
660.291 0.5665999999999976
660.586 0.6499999999999986
660.879 0.6999999999999993
661.174 0.6499999999999986
661.469 0.5832999999999977
661.764 0.5832999999999977
662.059 0.666599999999999
662.354 0.6165999999999983
662.649 0.6832999999999991
662.944 0.7833000000000006
663.239 0.6165999999999983
663.534 0.666599999999999
663.83 0.5333000000000006
664.122 0.6499999999999986
664.417 0.5665999999999976
664.713 0.43329999999999913
665.008 0.6499999999999986
665.302 0.4665999999999997
665.597 0.48329999999999984
665.892 0.5333000000000006
666.187 0.5500000000000007
666.48 0.4499999999999993
666.775 0.43329999999999913
667.07 0.5166000000000004
667.365 0.5665999999999976
667.66 0.43329999999999913
667.955 0.5
668.25 0.3999999999999986
668.542 0.34999999999999787
668.837 0.3999999999999986
669.132 0.5333000000000006
669.427 0.48329999999999984
669.722 0.3999999999999986
670.017 0.3832999999999984
670.31 0.3832999999999984
670.604 0.4665999999999997
670.899 0.3832999999999984
671.194 0.5
671.489 0.3332999999999977
671.783 0.3000000000000007
672.076 0.36659999999999826
672.371 0.2666000000000004
672.666 0.36659999999999826
672.96 0.48329999999999984
673.255 0.28330000000000055
673.548 0.5166000000000004
673.842 0.4499999999999993
674.137 0.41659999999999897
674.432 0.43329999999999913
674.727 0.3332999999999977
675.019 0.36659999999999826
675.314 0.3832999999999984
675.608 0.3332999999999977
675.903 0.3999999999999986
676.196 0.3832999999999984
676.49 0.43329999999999913
676.785 0.3999999999999986
677.079 0.5
677.374 0.28330000000000055
677.667 0.3832999999999984
677.961 0.3332999999999977
678.256 0.48329999999999984
678.55 0.41659999999999897
678.843 0.28330000000000055
679.137 0.34999999999999787
679.432 0.43329999999999913
679.726 0.5166000000000004
680.019 0.3000000000000007
680.313 0.34999999999999787
680.608 0.3000000000000007
680.902 0.36659999999999826
681.195 0.28330000000000055
681.489 0.36659999999999826
681.784 0.2666000000000004
682.076 0.3000000000000007
682.37 0.4499999999999993
682.665 0.48329999999999984
682.959 0.25
683.252 0.36659999999999826
683.546 0.25
683.84 0.36659999999999826
684.133 0.3832999999999984
684.427 0.3832999999999984
684.721 0.36659999999999826
685.014 0.3332999999999977
685.308 0.36659999999999826
685.602 0.36659999999999826
685.895 0.43329999999999913
686.189 0.23329999999999984
686.483 0.34999999999999787
686.778 0.25
687.07 0.34999999999999787
687.364 0.28330000000000055
687.658 0.41659999999999897
687.951 0.43329999999999913
688.245 0.4665999999999997
688.537 0.41659999999999897
688.831 0.16659999999999897
689.125 0.31659999999999755
689.418 0.31659999999999755
689.712 0.25
690.006 0.36659999999999826
690.298 0.31659999999999755
690.592 0.36659999999999826
690.886 0.3000000000000007
691.178 0.34999999999999787
691.473 0.41659999999999897
691.767 0.3832999999999984
692.059 0.3999999999999986
692.353 0.21659999999999968
692.645 0.34999999999999787
692.939 0.3000000000000007
693.233 0.3332999999999977
693.525 0.34999999999999787
693.819 0.3000000000000007
694.111 0.3832999999999984
694.405 0.36659999999999826
694.699 0.34999999999999787
694.991 0.3000000000000007
695.285 0.3000000000000007
695.577 0.3832999999999984
695.871 0.3332999999999977
696.165 0.41659999999999897
696.457 0.43329999999999913
696.751 0.36659999999999826
697.043 0.28330000000000055
697.337 0.3832999999999984
697.629 0.3999999999999986
697.923 0.43329999999999913
698.217 0.31659999999999755
698.509 0.36659999999999826
698.802 0.34999999999999787
699.094 0.34999999999999787
699.388 0.28330000000000055
699.68 0.28330000000000055
699.974 0.4499999999999993
700.266 0.3332999999999977
700.56 0.3999999999999986
700.853 0.3332999999999977
701.145 0.31659999999999755
701.439 0.3832999999999984
701.731 0.2666000000000004
702.025 0.3332999999999977
702.316 0.34999999999999787
702.61 0.28330000000000055
702.902 0.3999999999999986
703.196 0.31659999999999755
703.487 0.3999999999999986
703.781 0.36659999999999826
704.073 0.2666000000000004
704.367 0.41659999999999897
704.658 0.36659999999999826
704.952 0.3000000000000007
705.244 0.4499999999999993
705.537 0.41659999999999897
705.829 0.34999999999999787
706.122 0.2666000000000004
706.414 0.2666000000000004
706.708 0.2666000000000004
706.999 0.3332999999999977
707.293 0.3332999999999977
