# Created: 2019-11-28 13:05:42.642505
# rshift intensity
76.1738 0.13329999999999842
76.4989 0.18329999999999913
76.824 0.16669999999999874
77.1491 0.1999999999999993
77.4721 0.21669999999999945
77.7972 0.09999999999999787
78.1223 0.09999999999999787
78.4474 0.11669999999999803
78.7724 0.033299999999997
79.0975 0.14999999999999858
79.4204 0.13329999999999842
79.7454 0.08329999999999771
80.0704 0.11669999999999803
80.3954 0.11669999999999803
80.7204 0.09999999999999787
81.0454 0.09999999999999787
81.3682 0.13329999999999842
81.6931 0.18329999999999913
82.0181 0.0
82.343 0.01670000000000016
82.6679 0.13329999999999842
82.9907 0.09999999999999787
83.3156 0.11669999999999803
83.6405 0.1999999999999993
83.9654 0.16669999999999874
84.2903 0.09999999999999787
84.613 0.18329999999999913
84.9378 0.08329999999999771
85.2626 0.09999999999999787
85.5875 0.16669999999999874
85.9101 0.14999999999999858
86.2349 0.13329999999999842
86.5597 0.11669999999999803
86.8845 0.08329999999999771
87.2093 0.09999999999999787
87.5319 0.14999999999999858
87.8566 0.16669999999999874
88.1814 0.11669999999999803
88.5061 0.09999999999999787
88.8286 0.18329999999999913
89.1533 0.23329999999999984
89.478 0.08329999999999771
89.8027 0.08329999999999771
90.1252 0.06669999999999732
90.4499 0.13329999999999842
90.7745 0.11669999999999803
91.0992 0.08329999999999771
91.4216 0.11669999999999803
91.7462 0.11669999999999803
92.0708 0.14999999999999858
92.3954 0.04999999999999716
92.7179 0.13329999999999842
93.0424 0.11669999999999803
93.367 0.04999999999999716
93.6915 0.09999999999999787
94.0139 0.08329999999999771
94.3384 0.11669999999999803
94.6629 0.13329999999999842
94.9853 0.04999999999999716
95.3098 0.11669999999999803
95.6342 0.04999999999999716
95.9587 0.13329999999999842
96.281 0.08329999999999771
96.6055 0.18329999999999913
96.9299 0.11669999999999803
97.2522 0.04999999999999716
97.5766 0.13329999999999842
97.901 0.18329999999999913
98.2232 0.18329999999999913
98.5476 0.14999999999999858
98.8719 0.06669999999999732
99.1942 0.18329999999999913
99.5185 0.09999999999999787
99.8428 0.11669999999999803
100.165 0.16669999999999874
100.489 0.04999999999999716
100.814 0.11669999999999803
101.136 0.08329999999999771
101.46 0.18329999999999913
101.784 0.13329999999999842
102.106 0.16669999999999874
102.431 0.1999999999999993
102.755 0.13329999999999842
103.077 0.16669999999999874
103.401 0.13329999999999842
103.725 0.16669999999999874
104.047 0.08329999999999771
104.372 0.08329999999999771
104.696 0.18329999999999913
105.018 0.09999999999999787
105.342 0.1999999999999993
105.666 0.18329999999999913
105.988 0.09999999999999787
106.312 0.13329999999999842
106.634 0.11669999999999803
106.958 0.14999999999999858
107.282 0.14999999999999858
107.604 0.16669999999999874
107.928 0.21669999999999945
108.252 0.18329999999999913
108.574 0.08329999999999771
108.898 0.08329999999999771
109.22 0.13329999999999842
109.544 0.16669999999999874
109.868 0.04999999999999716
110.19 0.14999999999999858
110.514 0.09999999999999787
110.836 0.13329999999999842
111.159 0.16669999999999874
111.483 0.11669999999999803
111.805 0.14999999999999858
112.129 0.16669999999999874
112.451 0.033299999999997
112.775 0.14999999999999858
113.096 0.09999999999999787
113.42 0.14999999999999858
113.744 0.01670000000000016
114.066 0.09999999999999787
114.39 0.08329999999999771
114.711 0.11669999999999803
115.035 0.1999999999999993
115.357 0.14999999999999858
115.681 0.033299999999997
116.004 0.13329999999999842
116.326 0.11669999999999803
116.65 0.06669999999999732
116.971 0.08329999999999771
117.295 0.16669999999999874
117.617 0.1999999999999993
117.94 0.09999999999999787
118.262 0.09999999999999787
118.586 0.033299999999997
118.907 0.14999999999999858
119.231 0.06669999999999732
119.554 0.04999999999999716
119.876 0.08329999999999771
120.199 0.11669999999999803
120.521 0.11669999999999803
120.845 0.14999999999999858
121.166 0.11669999999999803
121.49 0.16669999999999874
121.811 0.08329999999999771
122.135 0.01670000000000016
122.456 0.14999999999999858
122.78 0.11669999999999803
123.101 0.09999999999999787
123.424 0.11669999999999803
123.746 0.16669999999999874
124.069 0.16669999999999874
124.391 0.06669999999999732
124.714 0.16669999999999874
125.035 0.0
125.359 0.09999999999999787
125.68 0.06669999999999732
126.004 0.09999999999999787
126.325 0.18329999999999913
126.648 0.08329999999999771
126.97 0.18329999999999913
127.291 0.16669999999999874
127.614 0.06669999999999732
127.935 0.18329999999999913
128.259 0.09999999999999787
128.58 0.13329999999999842
128.903 0.16669999999999874
129.224 0.09999999999999787
129.548 0.08329999999999771
129.869 0.29999999999999716
130.192 0.14999999999999858
130.513 0.18329999999999913
130.834 0.21669999999999945
131.158 0.11669999999999803
131.479 0.16669999999999874
131.802 0.08329999999999771
132.123 0.21669999999999945
132.446 0.16669999999999874
132.767 0.283299999999997
133.09 0.16669999999999874
133.411 0.11669999999999803
133.733 0.16669999999999874
134.056 0.11669999999999803
134.377 0.14999999999999858
134.7 0.06669999999999732
135.021 0.13329999999999842
135.342 0.14999999999999858
135.665 0.033299999999997
135.986 0.14999999999999858
136.309 0.18329999999999913
136.63 0.14999999999999858
136.951 0.06669999999999732
137.274 0.06669999999999732
137.595 0.21669999999999945
137.918 0.033299999999997
138.238 0.09999999999999787
138.559 0.033299999999997
138.882 0.16669999999999874
139.203 0.06669999999999732
139.526 0.13329999999999842
139.847 0.06669999999999732
140.168 0.09999999999999787
140.491 0.23329999999999984
140.811 0.18329999999999913
141.132 0.04999999999999716
141.455 0.09999999999999787
141.776 0.18329999999999913
142.097 0.11669999999999803
142.419 0.11669999999999803
142.74 0.11669999999999803
143.061 0.1999999999999993
143.384 0.06669999999999732
143.704 0.11669999999999803
144.027 0.1999999999999993
144.348 0.033299999999997
144.668 0.13329999999999842
144.991 0.16669999999999874
145.312 0.16669999999999874
145.632 0.11669999999999803
145.955 0.14999999999999858
146.276 0.08329999999999771
146.596 0.18329999999999913
146.917 0.08329999999999771
147.24 0.11669999999999803
147.56 0.13329999999999842
147.881 0.13329999999999842
148.203 0.08329999999999771
148.524 0.09999999999999787
148.844 0.21669999999999945
149.167 0.04999999999999716
149.487 0.09999999999999787
149.808 0.16669999999999874
150.131 0.16669999999999874
150.451 0.14999999999999858
150.771 0.09999999999999787
151.092 0.16669999999999874
151.414 0.06669999999999732
151.735 0.16669999999999874
152.055 0.11669999999999803
152.378 0.14999999999999858
152.698 0.13329999999999842
153.018 0.13329999999999842
153.339 0.11669999999999803
153.661 0.18329999999999913
153.982 0.23329999999999984
154.302 0.1999999999999993
154.622 0.14999999999999858
154.945 0.09999999999999787
155.265 0.04999999999999716
155.585 0.1999999999999993
155.905 0.04999999999999716
156.228 0.14999999999999858
156.548 0.13329999999999842
156.868 0.08329999999999771
157.188 0.18329999999999913
157.511 0.26670000000000016
157.831 0.08329999999999771
158.151 0.09999999999999787
158.471 0.16669999999999874
158.794 0.18329999999999913
159.114 0.16669999999999874
159.434 0.16669999999999874
159.754 0.16669999999999874
160.074 0.18329999999999913
160.396 0.283299999999997
160.717 0.14999999999999858
161.037 0.11669999999999803
161.357 0.14999999999999858
161.679 0.16669999999999874
161.999 0.16669999999999874
162.319 0.08329999999999771
162.639 0.11669999999999803
162.959 0.16669999999999874
163.281 0.06669999999999732
163.601 0.18329999999999913
163.921 0.1999999999999993
164.241 0.11669999999999803
164.561 0.25
164.881 0.09999999999999787
165.203 0.16669999999999874
165.523 0.08329999999999771
165.843 0.16669999999999874
166.163 0.14999999999999858
166.483 0.11669999999999803
166.803 0.08329999999999771
167.125 0.13329999999999842
167.445 0.18329999999999913
167.764 0.11669999999999803
168.084 0.25
168.404 0.11669999999999803
168.724 0.34999999999999787
169.046 0.1999999999999993
169.366 0.18329999999999913
169.685 0.09999999999999787
170.005 0.13329999999999842
170.325 0.16669999999999874
170.645 0.11669999999999803
170.964 0.09999999999999787
171.286 0.16669999999999874
171.606 0.11669999999999803
171.926 0.09999999999999787
172.245 0.13329999999999842
172.565 0.18329999999999913
172.885 0.11669999999999803
173.204 0.14999999999999858
173.524 0.18329999999999913
173.846 0.18329999999999913
174.166 0.14999999999999858
174.485 0.08329999999999771
174.805 0.23329999999999984
175.124 0.16669999999999874
175.444 0.08329999999999771
175.764 0.08329999999999771
176.083 0.16669999999999874
176.403 0.16669999999999874
176.722 0.16669999999999874
177.044 0.16669999999999874
177.363 0.14999999999999858
177.683 0.16669999999999874
178.002 0.18329999999999913
178.322 0.14999999999999858
178.641 0.04999999999999716
178.961 0.08329999999999771
179.28 0.06669999999999732
179.6 0.09999999999999787
179.919 0.09999999999999787
180.239 0.21669999999999945
180.558 0.13329999999999842
180.877 0.11669999999999803
181.197 0.18329999999999913
181.516 0.08329999999999771
181.838 0.09999999999999787
182.157 0.1999999999999993
182.476 0.13329999999999842
182.796 0.13329999999999842
183.115 0.18329999999999913
183.434 0.1999999999999993
183.754 0.13329999999999842
184.073 0.16669999999999874
184.392 0.25
184.712 0.08329999999999771
185.031 0.11669999999999803
185.35 0.14999999999999858
185.669 0.09999999999999787
185.989 0.18329999999999913
186.308 0.18329999999999913
186.627 0.13329999999999842
186.946 0.08329999999999771
187.265 0.16669999999999874
187.585 0.09999999999999787
187.904 0.14999999999999858
188.223 0.1999999999999993
188.542 0.11669999999999803
188.861 0.09999999999999787
189.18 0.08329999999999771
189.499 0.13329999999999842
189.818 0.16669999999999874
190.138 0.08329999999999771
190.457 0.14999999999999858
190.776 0.21669999999999945
191.095 0.14999999999999858
191.414 0.26670000000000016
191.733 0.23329999999999984
192.052 0.16669999999999874
192.371 0.23329999999999984
192.69 0.1999999999999993
193.009 0.25
193.328 0.21669999999999945
193.647 0.14999999999999858
193.966 0.18329999999999913
194.285 0.033299999999997
194.602 0.033299999999997
194.92 0.14999999999999858
195.239 0.1999999999999993
195.558 0.18329999999999913
195.877 0.16669999999999874
196.196 0.18329999999999913
196.515 0.1999999999999993
196.834 0.26670000000000016
197.153 0.21669999999999945
197.471 0.13329999999999842
197.79 0.16669999999999874
198.109 0.09999999999999787
198.428 0.26670000000000016
198.747 0.11669999999999803
199.065 0.11669999999999803
199.382 0.14999999999999858
199.701 0.09999999999999787
200.02 0.21669999999999945
200.338 0.1999999999999993
200.657 0.1999999999999993
200.976 0.09999999999999787
201.295 0.13329999999999842
201.613 0.13329999999999842
201.932 0.29999999999999716
202.251 0.09999999999999787
202.567 0.23329999999999984
202.886 0.18376440036446695
203.204 0.21349137295501208
203.523 0.2203011291428254
203.842 0.216759986742602
204.16 0.20885907186704245
204.479 0.21922818939707156
204.797 0.21310340650794402
205.114 0.20587842218908747
205.433 0.16669999999999874
205.751 0.23329999999999984
206.07 0.18329999999999913
206.388 0.11669999999999803
206.707 0.11669999999999803
207.025 0.1999999999999993
207.342 0.18329999999999913
207.66 0.1999999999999993
207.979 0.1999999999999993
208.297 0.1999999999999993
208.615 0.21669999999999945
208.934 0.14999999999999858
209.25 0.1999999999999993
209.569 0.283299999999997
209.887 0.1999999999999993
210.205 0.26670000000000016
210.524 0.08329999999999771
210.842 0.14999999999999858
211.158 0.23329999999999984
211.477 0.23329999999999984
211.795 0.21669999999999945
212.113 0.14999999999999858
212.432 0.1999999999999993
212.75 0.21669999999999945
213.066 0.16669999999999874
213.385 0.13329999999999842
213.703 0.1999999999999993
214.021 0.18329999999999913
214.339 0.21669999999999945
214.656 0.13329999999999842
214.974 0.26670000000000016
215.292 0.18329999999999913
215.61 0.16669999999999874
215.926 0.23329999999999984
216.245 0.11669999999999803
216.563 0.1999999999999993
216.881 0.16669999999999874
217.199 0.21669999999999945
217.515 0.18329999999999913
217.833 0.1999999999999993
218.151 0.23329999999999984
218.469 0.21669999999999945
218.785 0.23329999999999984
219.104 0.1999999999999993
219.422 0.16669999999999874
219.74 0.25
220.056 0.26670000000000016
220.374 0.11669999999999803
220.692 0.18329999999999913
221.01 0.14999999999999858
221.326 0.25
221.644 0.16669999999999874
221.962 0.1999999999999993
222.28 0.16669999999999874
222.596 0.25
222.914 0.21669999999999945
223.232 0.23329999999999984
223.547 0.16669999999999874
223.865 0.25
224.183 0.1999999999999993
224.501 0.25
224.817 0.29999999999999716
225.135 0.283299999999997
225.453 0.23329999999999984
225.768 0.26670000000000016
226.086 0.16669999999999874
226.404 0.21669999999999945
226.722 0.23329999999999984
227.038 0.1999999999999993
227.355 0.1999999999999993
227.673 0.3332999999999977
227.989 0.1999999999999993
228.307 0.21669999999999945
228.625 0.21669999999999945
228.94 0.25
229.258 0.283299999999997
229.576 0.16669999999999874
229.891 0.21669999999999945
230.209 0.21669999999999945
230.527 0.25
230.842 0.14999999999999858
231.16 0.23329999999999984
231.478 0.283299999999997
231.793 0.11669999999999803
232.111 0.18329999999999913
232.428 0.23329999999999984
232.744 0.21669999999999945
233.062 0.21669999999999945
233.379 0.21669999999999945
233.695 0.3166999999999973
234.012 0.1999999999999993
234.33 0.29999999999999716
234.645 0.29999999999999716
234.963 0.16669999999999874
235.278 0.09999999999999787
235.596 0.1999999999999993
235.913 0.25
236.229 0.283299999999997
236.546 0.21669999999999945
236.864 0.16669999999999874
237.179 0.18329999999999913
237.497 0.23329999999999984
237.812 0.23329999999999984
238.129 0.13329999999999842
238.447 0.366699999999998
238.762 0.18329999999999913
239.08 0.25
239.395 0.23329999999999984
239.712 0.1999999999999993
240.03 0.25
240.345 0.18329999999999913
240.662 0.18329999999999913
240.978 0.25
241.295 0.21669999999999945
241.61 0.23329999999999984
241.927 0.16669999999999874
242.245 0.1999999999999993
242.56 0.283299999999997
242.877 0.11669999999999803
243.192 0.25
243.51 0.3166999999999973
243.825 0.1999999999999993
244.142 0.14999999999999858
244.459 0.1999999999999993
244.774 0.1999999999999993
245.092 0.18329999999999913
245.407 0.25
245.724 0.21669999999999945
246.039 0.13329999999999842
246.356 0.21669999999999945
246.671 0.08329999999999771
246.988 0.1999999999999993
247.303 0.13329999999999842
247.62 0.09999999999999787
247.938 0.26670000000000016
248.253 0.14999999999999858
248.57 0.1999999999999993
248.885 0.21669999999999945
249.202 0.16669999999999874
249.517 0.16669999999999874
249.834 0.13329999999999842
250.149 0.18329999999999913
250.466 0.25
250.781 0.16669999999999874
251.098 0.25
251.412 0.13329999999999842
251.729 0.16669999999999874
252.044 0.11669999999999803
252.361 0.21669999999999945
252.676 0.21669999999999945
252.993 0.1999999999999993
253.308 0.23329999999999984
253.625 0.283299999999997
253.94 0.1999999999999993
254.256 0.14999999999999858
254.571 0.14999999999999858
254.888 0.18329999999999913
255.203 0.13329999999999842
255.518 0.21669999999999945
255.834 0.26670000000000016
256.149 0.25
256.466 0.18329999999999913
256.781 0.29999999999999716
257.097 0.283299999999997
257.412 0.13329999999999842
257.729 0.14999999999999858
258.044 0.25
258.36 0.13329999999999842
258.675 0.25
258.99 0.21669999999999945
259.306 0.16669999999999874
259.621 0.16669999999999874
259.938 0.11669999999999803
260.252 0.21669999999999945
260.569 0.1999999999999993
260.883 0.1999999999999993
261.198 0.34999999999999787
261.515 0.21669999999999945
261.829 0.18329999999999913
262.146 0.18329999999999913
262.46 0.21669999999999945
262.775 0.1999999999999993
263.091 0.23329999999999984
263.406 0.21669999999999945
263.723 0.16669999999999874
264.037 0.14999999999999858
264.354 0.3332999999999977
264.668 0.283299999999997
264.982 0.14999999999999858
265.299 0.21669999999999945
265.613 0.18329999999999913
265.928 0.14999999999999858
266.244 0.1999999999999993
266.559 0.18329999999999913
266.875 0.14999999999999858
267.189 0.14999999999999858
267.504 0.3166999999999973
267.82 0.18329999999999913
268.134 0.21669999999999945
268.449 0.16669999999999874
268.765 0.1999999999999993
269.079 0.3832999999999984
269.394 0.16669999999999874
269.71 0.23329999999999984
270.024 0.1999999999999993
270.341 0.23329999999999984
270.655 0.1999999999999993
270.969 0.23329999999999984
271.286 0.21669999999999945
271.6 0.16669999999999874
271.914 0.14999999999999858
272.23 0.29999999999999716
272.544 0.18329999999999913
272.859 0.18329999999999913
273.175 0.18329999999999913
273.489 0.21669999999999945
273.803 0.26670000000000016
274.119 0.09999999999999787
274.433 0.13329999999999842
274.747 0.25
275.062 0.21669999999999945
275.378 0.14999999999999858
275.692 0.08329999999999771
276.006 0.26670000000000016
276.322 0.1999999999999993
276.636 0.23329999999999984
276.95 0.283299999999997
277.266 0.09999999999999787
277.58 0.34999999999999787
277.894 0.11669999999999803
278.208 0.16669999999999874
278.524 0.25
278.838 0.18329999999999913
279.152 0.26670000000000016
279.468 0.3166999999999973
279.782 0.1999999999999993
280.096 0.21669999999999945
280.41 0.21669999999999945
280.726 0.25
281.04 0.1999999999999993
281.354 0.21669999999999945
281.668 0.21669999999999945
281.983 0.3166999999999973
282.297 0.21669999999999945
282.611 0.18329999999999913
282.925 0.1999999999999993
283.241 0.25
283.555 0.29999999999999716
283.868 0.29999999999999716
284.182 0.21669999999999945
284.498 0.21669999999999945
284.812 0.283299999999997
285.126 0.18329999999999913
285.439 0.18329999999999913
285.753 0.1999999999999993
286.069 0.23329999999999984
286.383 0.26670000000000016
286.696 0.26670000000000016
287.01 0.23329999999999984
287.326 0.25
287.639 0.18329999999999913
287.953 0.1999999999999993
288.267 0.26670000000000016
288.58 0.25
288.896 0.14999999999999858
289.21 0.1999999999999993
289.523 0.11669999999999803
289.837 0.283299999999997
290.15 0.366699999999998
290.466 0.13329999999999842
290.78 0.23329999999999984
291.093 0.21669999999999945
291.407 0.23329999999999984
291.72 0.18329999999999913
292.034 0.14999999999999858
292.349 0.21669999999999945
292.663 0.26670000000000016
292.976 0.1999999999999993
293.29 0.26670000000000016
293.603 0.29999999999999716
293.917 0.26670000000000016
294.232 0.16669999999999874
294.546 0.16669999999999874
294.859 0.21669999999999945
295.172 0.16669999999999874
295.486 0.16669999999999874
295.799 0.18329999999999913
296.113 0.3332999999999977
296.428 0.23329999999999984
296.741 0.16669999999999874
297.055 0.283299999999997
297.368 0.14999999999999858
297.681 0.283299999999997
297.995 0.23329999999999984
298.308 0.25
298.621 0.21669999999999945
298.937 0.18329999999999913
299.25 0.34999999999999787
299.563 0.11669999999999803
299.876 0.1999999999999993
300.19 0.283299999999997
300.503 0.09999999999999787
300.816 0.18329999999999913
301.129 0.26670000000000016
301.442 0.23329999999999984
301.756 0.283299999999997
302.071 0.16669999999999874
302.384 0.23329999999999984
302.697 0.1999999999999993
303.01 0.1999999999999993
303.323 0.21669999999999945
303.637 0.14999999999999858
303.95 0.25
304.263 0.25
304.576 0.1999999999999993
304.889 0.16669999999999874
305.202 0.14999999999999858
305.515 0.14999999999999858
305.828 0.16669999999999874
306.141 0.23329999999999984
306.456 0.283299999999997
306.769 0.14999999999999858
307.082 0.14999999999999858
307.395 0.26670000000000016
307.708 0.25
308.021 0.26670000000000016
308.334 0.1999999999999993
308.647 0.1999999999999993
308.96 0.23329999999999984
309.273 0.18329999999999913
309.586 0.09999999999999787
309.899 0.283299999999997
310.212 0.23329999999999984
310.525 0.18329999999999913
310.838 0.34999999999999787
311.15 0.1999999999999993
311.463 0.26670000000000016
311.776 0.21669999999999945
312.089 0.23329999999999984
312.402 0.14999999999999858
312.715 0.29999999999999716
313.027 0.1999999999999993
313.34 0.1999999999999993
313.653 0.18329999999999913
313.966 0.11669999999999803
314.278 0.16669999999999874
314.591 0.18329999999999913
314.904 0.1999999999999993
315.217 0.16669999999999874
315.529 0.29999999999999716
315.842 0.13329999999999842
316.155 0.25
316.467 0.283299999999997
316.78 0.21669999999999945
317.093 0.14999999999999858
317.405 0.283299999999997
317.718 0.14999999999999858
318.031 0.3166999999999973
318.343 0.23329999999999984
318.656 0.21669999999999945
318.969 0.13329999999999842
319.281 0.283299999999997
319.592 0.08329999999999771
319.904 0.11669999999999803
320.217 0.3332999999999977
320.529 0.14999999999999858
320.842 0.25
321.154 0.16669999999999874
321.467 0.14999999999999858
321.779 0.18329999999999913
322.092 0.08329999999999771
322.404 0.1999999999999993
322.717 0.16669999999999874
323.029 0.16669999999999874
323.342 0.3166999999999973
323.654 0.21669999999999945
323.965 0.3999999999999986
324.277 0.23329999999999984
324.589 0.18329999999999913
324.902 0.26670000000000016
325.214 0.25
325.527 0.18329999999999913
325.839 0.283299999999997
326.151 0.283299999999997
326.464 0.26670000000000016
326.776 0.3166999999999973
327.086 0.3332999999999977
327.399 0.3832999999999984
327.711 0.3332999999999977
328.023 0.34999999999999787
328.335 0.3332999999999977
328.648 0.366699999999998
328.96 0.43329999999999913
329.27 0.29999999999999716
329.582 0.46669999999999945
329.895 0.26670000000000016
330.207 0.3166999999999973
330.519 0.366699999999998
330.831 0.4499999999999993
331.143 0.3537747869025196
331.454 0.5993855246663529
331.766 0.49565805180332845
332.078 0.5847783826696897
332.39 0.48046463083344193
332.702 0.3599008782699862
333.014 0.6369932319158522
333.326 0.5895114668168979
333.636 0.29999999999999716
333.948 0.3999999999999986
334.261 0.3166999999999973
334.573 0.3332999999999977
334.885 0.21669999999999945
335.195 0.25
335.507 0.26670000000000016
335.819 0.43329999999999913
336.131 0.18329999999999913
336.443 0.25
336.753 0.283299999999997
337.065 0.29999999999999716
337.377 0.16669999999999874
337.689 0.21669999999999945
338.001 0.46669999999999945
338.31 0.23329999999999984
338.622 0.3166999999999973
338.934 0.21669999999999945
339.246 0.283299999999997
339.558 0.21669999999999945
339.868 0.25
340.18 0.1999999999999993
340.492 0.29999999999999716
340.804 0.26670000000000016
341.113 0.25
341.425 0.26670000000000016
341.737 0.25
342.049 0.1999999999999993
342.361 0.16669999999999874
342.67 0.34999999999999787
342.982 0.1999999999999993
343.294 0.3999999999999986
343.606 0.14999999999999858
343.915 0.1999999999999993
344.227 0.3332999999999977
344.539 0.34999999999999787
344.849 0.34999999999999787
345.16 0.283299999999997
345.472 0.3332999999999977
345.784 0.1999999999999993
346.093 0.3332999999999977
346.405 0.283299999999997
346.717 0.29999999999999716
347.028 0.3999999999999986
347.338 0.23329999999999984
347.649 0.3332999999999977
347.961 0.3166999999999973
348.271 0.23329999999999984
348.582 0.3166999999999973
348.894 0.21669999999999945
349.205 0.3166999999999973
349.515 0.3166999999999973
349.826 0.283299999999997
350.138 0.3166999999999973
350.447 0.25
350.759 0.26670000000000016
351.07 0.283299999999997
351.38 0.3166999999999973
351.691 0.283299999999997
352.003 0.34999999999999787
352.312 0.3166999999999973
352.624 0.26670000000000016
352.935 0.25
353.245 0.3166999999999973
353.556 0.3332999999999977
353.867 0.23329999999999984
354.177 0.283299999999997
354.488 0.3166999999999973
354.799 0.3332999999999977
355.109 0.26670000000000016
355.42 0.26670000000000016
355.732 0.29999999999999716
356.041 0.23329999999999984
356.352 0.29999999999999716
356.663 0.26670000000000016
356.973 0.3832999999999984
357.284 0.26670000000000016
357.593 0.3166999999999973
357.905 0.283299999999997
358.216 0.34999999999999787
358.525 0.3832999999999984
358.836 0.34999999999999787
359.147 0.26670000000000016
359.457 0.1999999999999993
359.768 0.3332999999999977
360.077 0.25
360.388 0.1999999999999993
360.699 0.29999999999999716
361.008 0.3166999999999973
361.32 0.21669999999999945
361.629 0.29999999999999716
361.94 0.283299999999997
362.251 0.283299999999997
362.56 0.23329999999999984
362.871 0.1999999999999993
363.18 0.283299999999997
363.491 0.366699999999998
363.8 0.283299999999997
364.111 0.21669999999999945
364.422 0.16669999999999874
364.731 0.29999999999999716
365.042 0.29999999999999716
365.351 0.26670000000000016
365.662 0.3332999999999977
365.971 0.26670000000000016
366.282 0.283299999999997
366.593 0.26670000000000016
366.902 0.18329999999999913
367.213 0.26670000000000016
367.522 0.25
367.833 0.283299999999997
368.142 0.16669999999999874
368.453 0.366699999999998
368.762 0.23329999999999984
369.073 0.21669999999999945
369.381 0.283299999999997
369.692 0.3332999999999977
370.001 0.29999999999999716
370.312 0.366699999999998
370.623 0.25
370.932 0.366699999999998
371.242 0.25
371.551 0.283299999999997
371.862 0.34999999999999787
372.171 0.13329999999999842
372.482 0.25
372.79 0.18329999999999913
373.101 0.21669999999999945
373.41 0.23329999999999984
373.721 0.18329999999999913
374.029 0.283299999999997
374.34 0.1999999999999993
374.649 0.366699999999998
374.959 0.26670000000000016
375.268 0.16669999999999874
375.577 0.18329999999999913
375.887 0.23329999999999984
376.196 0.3832999999999984
376.506 0.3832999999999984
376.815 0.3166999999999973
377.126 0.29999999999999716
377.434 0.1999999999999993
377.745 0.25
378.053 0.29999999999999716
378.364 0.1999999999999993
378.672 0.3999999999999986
378.983 0.23329999999999984
379.292 0.283299999999997
379.6 0.283299999999997
379.911 0.3166999999999973
380.219 0.3832999999999984
380.53 0.26670000000000016
380.838 0.43329999999999913
381.148 0.29999999999999716
381.457 0.21669999999999945
381.767 0.23329999999999984
382.076 0.3332999999999977
382.384 0.3999999999999986
382.695 0.25
383.003 0.18329999999999913
383.313 0.25
383.622 0.3166999999999973
383.93 0.3832999999999984
384.24 0.23329999999999984
384.549 0.3832999999999984
384.859 0.25
385.167 0.3332999999999977
385.476 0.366699999999998
385.786 0.34999999999999787
386.094 0.366699999999998
386.405 0.18329999999999913
386.713 0.26670000000000016
387.021 0.26670000000000016
387.331 0.26670000000000016
387.64 0.3166999999999973
387.948 0.3166999999999973
388.258 0.26670000000000016
388.566 0.34999999999999787
388.877 0.23329999999999984
389.185 0.283299999999997
389.493 0.3332999999999977
389.803 0.14999999999999858
390.111 0.41669999999999874
390.419 0.3832999999999984
390.729 0.26670000000000016
391.038 0.366699999999998
391.346 0.26670000000000016
391.656 0.3832999999999984
391.964 0.3166999999999973
392.272 0.283299999999997
392.582 0.26670000000000016
392.89 0.43329999999999913
393.198 0.29999999999999716
393.508 0.3166999999999973
393.816 0.366699999999998
394.124 0.283299999999997
394.434 0.21669999999999945
394.742 0.29999999999999716
395.05 0.41669999999999874
395.36 0.283299999999997
395.668 0.29999999999999716
395.976 0.3832999999999984
396.286 0.283299999999997
396.594 0.16669999999999874
396.902 0.29999999999999716
397.21 0.3332999999999977
397.52 0.26670000000000016
397.828 0.23329999999999984
398.135 0.25
398.445 0.41669999999999874
398.753 0.3332999999999977
399.061 0.29999999999999716
399.369 0.3166999999999973
399.679 0.283299999999997
399.987 0.3332999999999977
400.294 0.34999999999999787
400.604 0.283299999999997
400.912 0.3332999999999977
401.22 0.3832999999999984
401.527 0.29999999999999716
401.837 0.29999999999999716
402.145 0.25
402.453 0.25
402.76 0.25
403.07 0.4499999999999993
403.378 0.29999999999999716
403.686 0.3999999999999986
403.993 0.29999999999999716
404.303 0.26670000000000016
404.611 0.3332999999999977
404.918 0.43329999999999913
405.226 0.29999999999999716
405.533 0.25
405.843 0.34999999999999787
406.151 0.43329999999999913
406.458 0.3166999999999973
406.766 0.3332999999999977
407.076 0.41669999999999874
407.383 0.25
407.691 0.5167000000000002
407.998 0.23329999999999984
408.306 0.3999999999999986
408.615 0.48329999999999984
408.923 0.34999999999999787
409.23 0.366699999999998
409.538 0.43329999999999913
409.845 0.46669999999999945
410.153 0.43329999999999913
410.462 0.26670000000000016
410.77 0.3832999999999984
411.077 0.26670000000000016
411.384 0.46669999999999945
411.692 0.34999999999999787
412.001 0.366699999999998
412.309 0.3999999999999986
412.616 0.3999999999999986
412.923 0.41669999999999874
413.231 0.366699999999998
413.538 0.4499999999999993
413.845 0.5666999999999973
414.155 0.3999999999999986
414.462 0.7166999999999994
414.769 0.46669999999999945
415.077 0.5167000000000002
415.384 0.533299999999997
415.691 0.5
415.999 0.3999999999999986
416.308 0.5666999999999973
416.615 0.5
416.922 0.5
417.23 0.6499999999999986
417.537 0.5999999999999979
417.844 0.6499999999999986
418.151 0.6832999999999991
418.458 0.6832999999999991
418.768 0.616699999999998
419.075 0.8332999999999977
419.382 0.9499999999999993
419.689 0.9332999999999991
419.996 0.7999999999999972
420.303 1.0
420.61 1.0999999999999979
420.918 0.8999999999999986
421.225 1.0666999999999973
421.532 1.033299999999997
421.841 1.1666999999999987
422.148 1.1499999999999986
422.455 1.3499999999999979
422.762 1.3999999999999986
423.069 1.0999999999999979
423.376 1.3332999999999977
423.683 1.2667000000000002
423.99 1.116699999999998
424.297 1.366699999999998
424.604 1.3499999999999979
424.911 1.2999999999999972
425.218 1.1999999999999993
425.525 1.1832999999999991
425.832 1.4666999999999994
426.139 1.116699999999998
426.446 1.283299999999997
426.753 1.283299999999997
427.061 1.2332999999999998
427.368 1.0499999999999972
427.675 1.033299999999997
427.982 1.116699999999998
428.289 1.1332999999999984
428.596 0.866699999999998
428.903 0.866699999999998
429.209 0.8832999999999984
429.516 0.9832999999999998
429.823 0.8499999999999979
430.13 0.7667000000000002
430.437 0.783299999999997
430.743 0.75
431.05 0.7667000000000002
431.357 0.6332999999999984
431.664 0.75
431.97 0.6332999999999984
432.277 0.75
432.584 0.6666999999999987
432.891 0.6499999999999986
433.197 0.5999999999999979
433.504 0.5167000000000002
433.811 0.5
434.117 0.6832999999999991
434.424 0.6999999999999993
434.731 0.46669999999999945
435.037 0.5167000000000002
435.344 0.5167000000000002
435.65 0.533299999999997
435.957 0.5999999999999979
436.262 0.5832999999999977
436.568 0.41669999999999874
436.875 0.48329999999999984
437.181 0.48329999999999984
437.488 0.366699999999998
437.794 0.5
438.101 0.3332999999999977
438.407 0.5
438.714 0.366699999999998
439.02 0.3999999999999986
439.327 0.3166999999999973
439.633 0.4499999999999993
439.94 0.43329999999999913
440.246 0.48329999999999984
440.553 0.41669999999999874
440.859 0.43329999999999913
441.163 0.3832999999999984
441.47 0.5
441.776 0.366699999999998
442.083 0.3999999999999986
442.389 0.3832999999999984
442.695 0.4499999999999993
443.002 0.3166999999999973
443.308 0.3832999999999984
443.614 0.366699999999998
443.921 0.4499999999999993
444.225 0.3999999999999986
444.531 0.5167000000000002
444.838 0.3999999999999986
445.144 0.366699999999998
445.45 0.3832999999999984
445.757 0.34999999999999787
446.063 0.3832999999999984
446.369 0.4499999999999993
446.675 0.43329999999999913
446.979 0.5
447.286 0.34999999999999787
447.592 0.43329999999999913
447.898 0.366699999999998
448.204 0.3832999999999984
448.51 0.34999999999999787
448.817 0.3832999999999984
449.121 0.283299999999997
449.427 0.3832999999999984
449.733 0.41669999999999874
450.039 0.3832999999999984
450.345 0.366699999999998
450.651 0.29999999999999716
450.955 0.43329999999999913
451.261 0.3332999999999977
451.568 0.41669999999999874
451.874 0.4499999999999993
452.18 0.43329999999999913
452.486 0.533299999999997
452.79 0.5
453.096 0.366699999999998
453.402 0.48329999999999984
453.708 0.366699999999998
454.014 0.3999999999999986
454.318 0.3832999999999984
454.624 0.3999999999999986
454.93 0.46669999999999945
455.236 0.34999999999999787
455.541 0.43329999999999913
455.845 0.3166999999999973
456.151 0.3166999999999973
456.457 0.3166999999999973
456.763 0.366699999999998
457.067 0.25
457.373 0.34999999999999787
457.679 0.283299999999997
457.985 0.3832999999999984
458.29 0.3999999999999986
458.594 0.29999999999999716
458.9 0.26670000000000016
459.206 0.34999999999999787
459.512 0.3166999999999973
459.815 0.41669999999999874
460.121 0.23329999999999984
460.427 0.366699999999998
460.733 0.41669999999999874
461.036 0.283299999999997
461.342 0.23329999999999984
461.648 0.366699999999998
461.954 0.34999999999999787
462.257 0.3832999999999984
462.563 0.23329999999999984
462.869 0.3166999999999973
463.172 0.283299999999997
463.478 0.366699999999998
463.784 0.46669999999999945
464.089 0.366699999999998
464.393 0.43329999999999913
464.699 0.23329999999999984
465.004 0.26670000000000016
465.308 0.366699999999998
465.613 0.283299999999997
465.919 0.29999999999999716
466.225 0.3166999999999973
466.528 0.3166999999999973
466.834 0.34999999999999787
467.139 0.3166999999999973
467.443 0.3999999999999986
467.748 0.3166999999999973
468.054 0.29999999999999716
468.357 0.366699999999998
468.663 0.29999999999999716
468.968 0.3832999999999984
469.272 0.3332999999999977
469.577 0.34999999999999787
469.883 0.41669999999999874
470.186 0.3332999999999977
470.492 0.3166999999999973
470.797 0.366699999999998
471.1 0.43329999999999913
471.406 0.3999999999999986
471.711 0.366699999999998
472.014 0.29999999999999716
472.32 0.34999999999999787
472.625 0.29999999999999716
472.929 0.4499999999999993
473.234 0.43329999999999913
473.539 0.41669999999999874
473.843 0.3166999999999973
474.148 0.48329999999999984
474.451 0.43329999999999913
474.756 0.366699999999998
475.062 0.43329999999999913
475.365 0.3832999999999984
475.67 0.43329999999999913
475.973 0.43329999999999913
476.279 0.48329999999999984
476.584 0.3999999999999986
476.887 0.3999999999999986
477.192 0.46669999999999945
477.498 0.7166999999999994
477.801 0.6499999999999986
478.106 0.5999999999999979
478.409 0.783299999999997
478.714 0.7332999999999998
479.017 0.7332999999999998
479.322 0.6999999999999993
479.628 0.7999999999999972
479.931 0.75
480.236 0.8832999999999984
480.539 0.866699999999998
480.844 0.8499999999999979
481.147 0.8832999999999984
481.452 0.7667000000000002
481.757 0.866699999999998
482.06 0.6499999999999986
482.365 0.9166999999999987
482.668 0.6999999999999993
482.973 0.8832999999999984
483.276 0.6499999999999986
483.581 0.75
483.884 0.6332999999999984
484.189 0.48329999999999984
484.494 0.5666999999999973
484.797 0.533299999999997
485.102 0.41669999999999874
485.405 0.3832999999999984
485.71 0.366699999999998
486.013 0.4499999999999993
486.318 0.3999999999999986
486.621 0.48329999999999984
486.925 0.43329999999999913
487.228 0.366699999999998
487.533 0.46669999999999945
487.836 0.25
488.141 0.3166999999999973
488.444 0.3832999999999984
488.748 0.29999999999999716
489.051 0.43329999999999913
489.356 0.41669999999999874
489.659 0.29999999999999716
489.964 0.3999999999999986
490.266 0.3166999999999973
490.571 0.4499999999999993
490.874 0.3999999999999986
491.179 0.25
491.481 0.34999999999999787
491.786 0.283299999999997
492.089 0.3166999999999973
492.393 0.29999999999999716
492.696 0.3332999999999977
493.001 0.29999999999999716
493.303 0.3832999999999984
493.606 0.3166999999999973
493.911 0.3999999999999986
494.213 0.283299999999997
494.518 0.4499999999999993
494.821 0.3166999999999973
495.125 0.34999999999999787
495.428 0.23329999999999984
495.732 0.34999999999999787
496.035 0.3332999999999977
496.337 0.1999999999999993
496.642 0.23329999999999984
496.945 0.34999999999999787
497.249 0.3332999999999977
497.552 0.23329999999999984
497.856 0.3332999999999977
498.159 0.5
498.461 0.3166999999999973
498.766 0.3332999999999977
499.068 0.3332999999999977
499.372 0.41669999999999874
499.675 0.26670000000000016
499.977 0.283299999999997
500.282 0.283299999999997
500.584 0.43329999999999913
500.889 0.3332999999999977
501.191 0.21669999999999945
501.493 0.29999999999999716
501.798 0.26670000000000016
502.1 0.4499999999999993
502.402 0.3332999999999977
502.707 0.29999999999999716
503.009 0.18329999999999913
503.314 0.23329999999999984
503.616 0.3832999999999984
503.918 0.3999999999999986
504.222 0.26670000000000016
504.525 0.16669999999999874
504.827 0.29999999999999716
505.131 0.3166999999999973
505.433 0.14999999999999858
505.736 0.283299999999997
506.04 0.283299999999997
506.342 0.23329999999999984
506.646 0.3999999999999986
506.949 0.21669999999999945
507.251 0.16669999999999874
507.555 0.21669999999999945
507.857 0.3166999999999973
508.159 0.3166999999999973
508.461 0.3332999999999977
508.766 0.43329999999999913
509.068 0.21669999999999945
509.37 0.29999999999999716
509.674 0.3832999999999984
509.976 0.29999999999999716
510.278 0.4499999999999993
510.582 0.3166999999999973
510.884 0.283299999999997
511.186 0.3166999999999973
511.49 0.43329999999999913
511.792 0.3332999999999977
512.094 0.23329999999999984
512.396 0.3999999999999986
512.701 0.23329999999999984
513.003 0.366699999999998
513.305 0.29999999999999716
513.609 0.23329999999999984
513.91 0.366699999999998
514.212 0.26670000000000016
514.514 0.34999999999999787
514.818 0.23329999999999984
515.12 0.26670000000000016
515.422 0.3332999999999977
515.724 0.3166999999999973
516.028 0.23329999999999984
516.33 0.1999999999999993
516.632 0.34999999999999787
516.934 0.283299999999997
517.237 0.3332999999999977
517.539 0.366699999999998
517.841 0.366699999999998
518.143 0.23329999999999984
518.447 0.3166999999999973
518.749 0.3332999999999977
519.05 0.46669999999999945
519.352 0.29999999999999716
519.656 0.21669999999999945
519.958 0.3166999999999973
520.26 0.11669999999999803
520.561 0.34999999999999787
520.863 0.23329999999999984
521.167 0.26670000000000016
521.468 0.26670000000000016
521.77 0.29999999999999716
522.072 0.283299999999997
522.376 0.3166999999999973
522.677 0.23329999999999984
522.979 0.366699999999998
523.281 0.283299999999997
523.582 0.3166999999999973
523.884 0.3332999999999977
524.187 0.26670000000000016
524.489 0.29999999999999716
524.791 0.3999999999999986
525.092 0.29999999999999716
525.394 0.3332999999999977
525.697 0.25
525.999 0.29999999999999716
526.301 0.1999999999999993
526.602 0.21669999999999945
526.904 0.41669999999999874
527.205 0.283299999999997
527.507 0.41669999999999874
527.81 0.16669999999999874
528.112 0.3166999999999973
528.413 0.41669999999999874
528.715 0.25
529.016 0.23329999999999984
529.318 0.18329999999999913
529.619 0.26670000000000016
529.922 0.283299999999997
530.224 0.3832999999999984
530.525 0.29999999999999716
530.827 0.29999999999999716
531.128 0.34999999999999787
531.429 0.34999999999999787
531.731 0.26670000000000016
532.032 0.34999999999999787
532.336 0.283299999999997
532.637 0.283299999999997
532.938 0.26670000000000016
533.24 0.3332999999999977
533.541 0.25
533.842 0.3166999999999973
534.143 0.3832999999999984
534.445 0.25
534.746 0.3999999999999986
535.047 0.366699999999998
535.351 0.3166999999999973
535.652 0.366699999999998
535.953 0.3332999999999977
536.254 0.29999999999999716
536.555 0.18329999999999913
536.857 0.25
537.158 0.21669999999999945
537.459 0.26670000000000016
537.76 0.3332999999999977
538.061 0.43329999999999913
538.362 0.3166999999999973
538.664 0.3166999999999973
538.965 0.3332999999999977
539.266 0.34999999999999787
539.567 0.3999999999999986
539.868 0.366699999999998
540.169 0.3999999999999986
540.472 0.26670000000000016
540.773 0.21669999999999945
541.074 0.34999999999999787
541.375 0.26670000000000016
541.677 0.3832999999999984
541.978 0.25
542.279 0.4499999999999993
542.58 0.283299999999997
542.881 0.3332999999999977
543.182 0.3332999999999977
543.483 0.3166999999999973
543.784 0.41669999999999874
544.085 0.41669999999999874
544.385 0.3166999999999973
544.686 0.43329999999999913
544.987 0.25
545.288 0.3166999999999973
545.589 0.29999999999999716
545.89 0.29999999999999716
546.191 0.3166999999999973
546.492 0.3999999999999986
546.793 0.283299999999997
547.094 0.41669999999999874
547.394 0.5
547.695 0.48329999999999984
547.996 0.4499999999999993
548.297 0.366699999999998
548.596 0.3332999999999977
548.897 0.4499999999999993
549.197 0.29999999999999716
549.498 0.3332999999999977
549.799 0.4499999999999993
550.1 0.43329999999999913
550.4 0.46669999999999945
550.701 0.4499999999999993
551.002 0.43329999999999913
551.303 0.366699999999998
551.603 0.5999999999999979
551.904 0.3999999999999986
552.205 0.5
552.505 0.48329999999999984
552.806 0.616699999999998
553.107 0.4499999999999993
553.407 0.5167000000000002
553.706 0.5666999999999973
554.007 0.6832999999999991
554.307 0.5499999999999972
554.608 0.43329999999999913
554.909 0.5666999999999973
555.209 0.5832999999999977
555.51 0.43329999999999913
555.81 0.5167000000000002
556.111 0.34999999999999787
556.411 0.5499999999999972
556.71 0.46669999999999945
557.01 0.533299999999997
557.311 0.43329999999999913
557.612 0.46669999999999945
557.912 0.5167000000000002
558.213 0.46669999999999945
558.513 0.46669999999999945
558.813 0.5499999999999972
559.112 0.3332999999999977
559.412 0.3999999999999986
559.713 0.3832999999999984
560.013 0.43329999999999913
560.314 0.5832999999999977
560.614 0.46669999999999945
560.914 0.41669999999999874
561.213 0.4499999999999993
561.513 0.3832999999999984
561.814 0.41669999999999874
562.114 0.3166999999999973
562.414 0.46669999999999945
562.715 0.3166999999999973
563.015 0.5167000000000002
563.313 0.43329999999999913
563.614 0.3332999999999977
563.914 0.366699999999998
564.214 0.283299999999997
564.515 0.25
564.813 0.25
565.113 0.3999999999999986
565.413 0.3166999999999973
565.714 0.29999999999999716
566.014 0.3332999999999977
566.312 0.3166999999999973
566.612 0.23329999999999984
566.912 0.366699999999998
567.213 0.3332999999999977
567.513 0.46669999999999945
567.811 0.41669999999999874
568.111 0.3166999999999973
568.411 0.366699999999998
568.712 0.3832999999999984
569.012 0.3832999999999984
569.31 0.3999999999999986
569.61 0.283299999999997
569.91 0.43329999999999913
570.21 0.41669999999999874
570.508 0.29999999999999716
570.808 0.3832999999999984
571.108 0.34999999999999787
571.408 0.283299999999997
571.706 0.3166999999999973
572.006 0.3832999999999984
572.306 0.29999999999999716
572.607 0.3332999999999977
572.904 0.3332999999999977
573.204 0.25
573.505 0.3999999999999986
573.805 0.1999999999999993
574.102 0.3999999999999986
574.402 0.23329999999999984
574.702 0.3166999999999973
575.002 0.3332999999999977
575.3 0.25
575.6 0.3332999999999977
575.9 0.29999999999999716
576.198 0.3166999999999973
576.498 0.26670000000000016
576.798 0.3332999999999977
577.098 0.3332999999999977
577.395 0.3999999999999986
577.695 0.29999999999999716
577.995 0.3332999999999977
578.293 0.3166999999999973
578.593 0.366699999999998
578.893 0.25
579.19 0.366699999999998
579.49 0.3166999999999973
579.79 0.34999999999999787
580.088 0.26670000000000016
580.387 0.34999999999999787
580.687 0.3166999999999973
580.985 0.283299999999997
581.285 0.29999999999999716
581.584 0.366699999999998
581.882 0.3166999999999973
582.182 0.34999999999999787
582.482 0.3332999999999977
582.779 0.41669999999999874
583.079 0.34999999999999787
583.378 0.41669999999999874
583.676 0.29999999999999716
583.976 0.26670000000000016
584.275 0.43329999999999913
584.573 0.29999999999999716
584.873 0.366699999999998
585.17 0.41669999999999874
585.47 0.3332999999999977
585.769 0.366699999999998
586.067 0.26670000000000016
586.367 0.34999999999999787
586.666 0.3166999999999973
586.964 0.366699999999998
587.263 0.366699999999998
587.561 0.3332999999999977
587.86 0.3832999999999984
588.16 0.3166999999999973
588.457 0.25
588.757 0.1999999999999993
589.054 0.3832999999999984
589.354 0.23329999999999984
589.653 0.23329999999999984
589.951 0.46669999999999945
590.25 0.4499999999999993
590.547 0.3832999999999984
590.847 0.25
591.144 0.3332999999999977
591.444 0.3166999999999973
591.743 0.23329999999999984
592.04 0.1999999999999993
592.34 0.3832999999999984
592.637 0.34999999999999787
592.936 0.283299999999997
593.234 0.366699999999998
593.533 0.29999999999999716
593.832 0.26670000000000016
594.13 0.366699999999998
594.429 0.29999999999999716
594.726 0.26670000000000016
595.026 0.283299999999997
595.323 0.43329999999999913
595.622 0.3832999999999984
595.919 0.26670000000000016
596.219 0.3999999999999986
596.516 0.34999999999999787
596.815 0.283299999999997
597.112 0.29999999999999716
597.411 0.29999999999999716
597.709 0.3332999999999977
598.008 0.29999999999999716
598.305 0.18329999999999913
598.604 0.25
598.901 0.26670000000000016
599.2 0.3332999999999977
599.497 0.29999999999999716
599.797 0.29999999999999716
600.094 0.29999999999999716
600.393 0.3166999999999973
600.69 0.46669999999999945
600.989 0.29999999999999716
601.286 0.3166999999999973
601.585 0.29999999999999716
601.882 0.34999999999999787
602.181 0.3332999999999977
602.478 0.26670000000000016
602.777 0.4499999999999993
603.074 0.283299999999997
603.373 0.366699999999998
603.67 0.34999999999999787
603.969 0.34999999999999787
604.266 0.34999999999999787
604.563 0.29999999999999716
604.862 0.283299999999997
605.159 0.3999999999999986
605.458 0.34999999999999787
605.755 0.48329999999999984
606.054 0.3166999999999973
606.351 0.46669999999999945
606.65 0.29999999999999716
606.946 0.34999999999999787
607.243 0.3332999999999977
607.542 0.34999999999999787
607.839 0.34999999999999787
608.138 0.366699999999998
608.435 0.366699999999998
608.732 0.3999999999999986
609.03 0.41669999999999874
609.327 0.43329999999999913
609.626 0.3999999999999986
609.923 0.4499999999999993
610.22 0.3999999999999986
610.518 0.43329999999999913
610.815 0.283299999999997
611.114 0.3999999999999986
611.411 0.48329999999999984
611.707 0.34999999999999787
612.006 0.43329999999999913
612.303 0.366699999999998
612.601 0.48329999999999984
612.898 0.283299999999997
613.195 0.616699999999998
613.493 0.4499999999999993
613.79 0.43329999999999913
614.087 0.3832999999999984
614.385 0.4499999999999993
614.682 0.46669999999999945
614.979 0.46669999999999945
615.277 0.4499999999999993
615.574 0.4499999999999993
615.87 0.5499999999999972
616.169 0.41669999999999874
616.466 0.43329999999999913
616.764 0.366699999999998
617.061 0.4499999999999993
617.357 0.41669999999999874
617.656 0.41669999999999874
617.952 0.3832999999999984
618.249 0.43329999999999913
618.545 0.46669999999999945
618.844 0.41669999999999874
619.14 0.48329999999999984
619.437 0.41669999999999874
619.735 0.41669999999999874
620.032 0.29999999999999716
620.328 0.3832999999999984
620.626 0.3999999999999986
620.923 0.3166999999999973
621.219 0.366699999999998
621.518 0.34999999999999787
621.814 0.43329999999999913
622.11 0.43329999999999913
622.407 0.26670000000000016
622.705 0.26670000000000016
623.002 0.3832999999999984
623.298 0.1999999999999993
623.594 0.3999999999999986
623.893 0.26670000000000016
624.189 0.366699999999998
624.485 0.283299999999997
624.784 0.283299999999997
625.08 0.366699999999998
625.376 0.3166999999999973
625.672 0.3332999999999977
625.971 0.23329999999999984
626.267 0.43329999999999913
626.563 0.41669999999999874
626.859 0.46669999999999945
627.158 0.34999999999999787
627.454 0.29999999999999716
627.75 0.3332999999999977
628.046 0.3332999999999977
628.342 0.21669999999999945
628.641 0.26670000000000016
628.937 0.3332999999999977
629.233 0.29999999999999716
629.529 0.26670000000000016
629.827 0.366699999999998
630.123 0.29999999999999716
630.419 0.3999999999999986
630.715 0.26670000000000016
631.011 0.366699999999998
631.31 0.3832999999999984
631.606 0.34999999999999787
631.902 0.29999999999999716
632.198 0.3832999999999984
632.494 0.43329999999999913
632.792 0.3999999999999986
633.088 0.29999999999999716
633.384 0.283299999999997
633.68 0.366699999999998
633.976 0.3332999999999977
634.272 0.26670000000000016
634.57 0.34999999999999787
634.866 0.25
635.162 0.46669999999999945
635.458 0.3332999999999977
635.754 0.3332999999999977
636.05 0.3166999999999973
636.347 0.283299999999997
636.643 0.46669999999999945
636.939 0.3832999999999984
637.235 0.21669999999999945
637.531 0.3999999999999986
637.827 0.29999999999999716
638.123 0.3332999999999977
638.421 0.29999999999999716
638.716 0.29999999999999716
639.012 0.29999999999999716
639.308 0.3332999999999977
639.604 0.3166999999999973
639.9 0.29999999999999716
640.195 0.26670000000000016
640.491 0.3332999999999977
640.789 0.366699999999998
641.085 0.3999999999999986
641.381 0.366699999999998
641.676 0.26670000000000016
641.972 0.29999999999999716
642.268 0.3332999999999977
642.563 0.3166999999999973
642.859 0.29999999999999716
643.155 0.29999999999999716
643.451 0.283299999999997
643.746 0.283299999999997
644.044 0.366699999999998
644.34 0.3999999999999986
644.635 0.34999999999999787
644.931 0.41669999999999874
645.227 0.3832999999999984
645.522 0.3166999999999973
645.818 0.366699999999998
646.113 0.43329999999999913
646.409 0.5
646.704 0.34999999999999787
647.0 0.46669999999999945
647.296 0.29999999999999716
647.591 0.3832999999999984
647.887 0.3332999999999977
648.182 0.366699999999998
648.478 0.3832999999999984
648.773 0.29999999999999716
649.069 0.3166999999999973
649.366 0.283299999999997
649.662 0.283299999999997
649.957 0.3999999999999986
650.253 0.29999999999999716
650.548 0.3332999999999977
650.844 0.29999999999999716
651.139 0.46669999999999945
651.434 0.3832999999999984
651.73 0.366699999999998
652.025 0.5
652.321 0.3999999999999986
652.616 0.366699999999998
652.911 0.46669999999999945
653.207 0.41669999999999874
653.502 0.29999999999999716
653.797 0.48329999999999984
654.093 0.43329999999999913
654.388 0.34999999999999787
654.683 0.43329999999999913
654.979 0.5499999999999972
655.274 0.46669999999999945
655.567 0.5666999999999973
655.863 0.533299999999997
656.158 0.43329999999999913
656.453 0.5999999999999979
656.748 0.46669999999999945
657.044 0.5499999999999972
657.339 0.5
657.634 0.43329999999999913
657.929 0.6332999999999984
658.224 0.5
658.52 0.5832999999999977
658.815 0.6332999999999984
659.11 0.5
659.405 0.8499999999999979
659.7 0.5999999999999979
659.995 0.6666999999999987
660.291 0.5666999999999973
660.586 0.5999999999999979
660.879 0.5832999999999977
661.174 0.5167000000000002
661.469 0.6832999999999991
661.764 0.6332999999999984
662.059 0.5666999999999973
662.354 0.5666999999999973
662.649 0.6666999999999987
662.944 0.6332999999999984
663.239 0.5832999999999977
663.534 0.6332999999999984
663.83 0.5499999999999972
664.122 0.5832999999999977
664.417 0.5167000000000002
664.713 0.5666999999999973
665.008 0.48329999999999984
665.302 0.5167000000000002
665.597 0.5499999999999972
665.892 0.46669999999999945
666.187 0.533299999999997
666.48 0.5
666.775 0.3999999999999986
667.07 0.43329999999999913
667.365 0.48329999999999984
667.66 0.3999999999999986
667.955 0.3832999999999984
668.25 0.29999999999999716
668.542 0.5666999999999973
668.837 0.283299999999997
669.132 0.41669999999999874
669.427 0.5167000000000002
669.722 0.366699999999998
670.017 0.283299999999997
670.31 0.41669999999999874
670.604 0.48329999999999984
670.899 0.3166999999999973
671.194 0.366699999999998
671.489 0.26670000000000016
671.783 0.3332999999999977
672.076 0.5
672.371 0.3332999999999977
672.666 0.3166999999999973
672.96 0.3832999999999984
673.255 0.34999999999999787
673.548 0.3384037721153774
673.842 0.33986787501854465
674.137 0.33803964503874084
674.432 0.33854664405085444
674.727 0.3402361201900419
675.019 0.33962163288999037
675.314 0.339421509425609
675.608 0.34999999999999787
675.903 0.3332999999999977
676.196 0.29999999999999716
676.49 0.283299999999997
676.785 0.3999999999999986
677.079 0.23329999999999984
677.374 0.3332999999999977
677.667 0.41669999999999874
677.961 0.3999999999999986
678.256 0.3832999999999984
678.55 0.25
678.843 0.4499999999999993
679.137 0.3832999999999984
679.432 0.21669999999999945
679.726 0.34999999999999787
680.019 0.29999999999999716
680.313 0.3332999999999977
680.608 0.23329999999999984
680.902 0.1999999999999993
681.195 0.43329999999999913
681.489 0.366699999999998
681.784 0.21669999999999945
682.076 0.29999999999999716
682.37 0.25
682.665 0.4499999999999993
682.959 0.366699999999998
683.252 0.25
683.546 0.3166999999999973
683.84 0.43329999999999913
684.133 0.23329999999999984
684.427 0.366699999999998
684.721 0.3832999999999984
685.014 0.29999999999999716
685.308 0.25
685.602 0.29999999999999716
685.895 0.43329999999999913
686.189 0.366699999999998
686.483 0.26670000000000016
686.778 0.1999999999999993
687.07 0.3166999999999973
687.364 0.3332999999999977
687.658 0.3332999999999977
687.951 0.283299999999997
688.245 0.1999999999999993
688.537 0.3166999999999973
688.831 0.18329999999999913
689.125 0.29999999999999716
689.418 0.3332999999999977
689.712 0.21669999999999945
690.006 0.34999999999999787
690.298 0.3332999999999977
690.592 0.3332999999999977
690.886 0.366699999999998
691.178 0.3332999999999977
691.473 0.34999999999999787
691.767 0.21669999999999945
692.059 0.46669999999999945
692.353 0.283299999999997
692.645 0.283299999999997
692.939 0.26670000000000016
693.233 0.3166999999999973
693.525 0.26670000000000016
693.819 0.21669999999999945
694.111 0.3166999999999973
694.405 0.3332999999999977
694.699 0.23329999999999984
694.991 0.26670000000000016
695.285 0.366699999999998
695.577 0.366699999999998
695.871 0.283299999999997
696.165 0.29999999999999716
696.457 0.283299999999997
696.751 0.26670000000000016
697.043 0.43329999999999913
697.337 0.26670000000000016
697.629 0.26670000000000016
697.923 0.29999999999999716
698.217 0.3332999999999977
698.509 0.3832999999999984
698.802 0.25
699.094 0.29999999999999716
699.388 0.26670000000000016
699.68 0.3999999999999986
699.974 0.46669999999999945
700.266 0.366699999999998
700.56 0.34999999999999787
700.853 0.3999999999999986
701.145 0.23329999999999984
701.439 0.25
701.731 0.26670000000000016
702.025 0.366699999999998
702.316 0.3999999999999986
702.61 0.283299999999997
702.902 0.29999999999999716
703.196 0.3832999999999984
703.487 0.25
703.781 0.21669999999999945
704.073 0.34999999999999787
704.367 0.3332999999999977
704.658 0.26670000000000016
704.952 0.3999999999999986
705.244 0.366699999999998
705.537 0.34999999999999787
705.829 0.3999999999999986
706.122 0.3166999999999973
706.414 0.283299999999997
706.708 0.34999999999999787
706.999 0.283299999999997
707.293 0.29999999999999716
