# Created: 2019-11-28 13:05:42.511367
# rshift intensity
76.1738 0.1999999999999993
76.4989 0.28330000000000055
76.824 0.1999999999999993
77.1491 0.18329999999999913
77.4721 0.18329999999999913
77.7972 0.21659999999999968
78.1223 0.21659999999999968
78.4474 0.16659999999999897
78.7724 0.1999999999999993
79.0975 0.14999999999999858
79.4204 0.16659999999999897
79.7454 0.09999999999999787
80.0704 0.1999999999999993
80.3954 0.16659999999999897
80.7204 0.14999999999999858
81.0454 0.14999999999999858
81.3682 0.16659999999999897
81.6931 0.13329999999999842
82.0181 0.11659999999999826
82.343 0.14999999999999858
82.6679 0.05000000000000071
82.9907 0.13329999999999842
83.3156 0.08329999999999771
83.6405 0.13329999999999842
83.9654 0.16659999999999897
84.2903 0.13329999999999842
84.613 0.16659999999999897
84.9378 0.13329999999999842
85.2626 0.0
85.5875 0.09999999999999787
85.9101 0.09999999999999787
86.2349 0.16659999999999897
86.5597 0.08329999999999771
86.8845 0.23329999999999984
87.2093 0.11659999999999826
87.5319 0.11659999999999826
87.8566 0.08329999999999771
88.1814 0.23329999999999984
88.5061 0.14999999999999858
88.8286 0.14999999999999858
89.1533 0.23329999999999984
89.478 0.13329999999999842
89.8027 0.08329999999999771
90.1252 0.14999999999999858
90.4499 0.21659999999999968
90.7745 0.16659999999999897
91.0992 0.11659999999999826
91.4216 0.09999999999999787
91.7462 0.18329999999999913
92.0708 0.21659999999999968
92.3954 0.09999999999999787
92.7179 0.18329999999999913
93.0424 0.09999999999999787
93.367 0.1999999999999993
93.6915 0.25
94.0139 0.1999999999999993
94.3384 0.08329999999999771
94.6629 0.23329999999999984
94.9853 0.11659999999999826
95.3098 0.14999999999999858
95.6342 0.08329999999999771
95.9587 0.21659999999999968
96.281 0.1999999999999993
96.6055 0.13329999999999842
96.9299 0.13329999999999842
97.2522 0.06659999999999755
97.5766 0.21659999999999968
97.901 0.08329999999999771
98.2232 0.13329999999999842
98.5476 0.09999999999999787
98.8719 0.11659999999999826
99.1942 0.1999999999999993
99.5185 0.18329999999999913
99.8428 0.14999999999999858
100.165 0.08329999999999771
100.489 0.1999999999999993
100.814 0.21659999999999968
101.136 0.18329999999999913
101.46 0.25
101.784 0.08329999999999771
102.106 0.13329999999999842
102.431 0.18329999999999913
102.755 0.1999999999999993
103.077 0.23329999999999984
103.401 0.14999999999999858
103.725 0.21659999999999968
104.047 0.18329999999999913
104.372 0.16659999999999897
104.696 0.21659999999999968
105.018 0.06659999999999755
105.342 0.18329999999999913
105.666 0.1999999999999993
105.988 0.28330000000000055
106.312 0.14999999999999858
106.634 0.08329999999999771
106.958 0.23329999999999984
107.282 0.14999999999999858
107.604 0.16659999999999897
107.928 0.21659999999999968
108.252 0.1999999999999993
108.574 0.1999999999999993
108.898 0.13329999999999842
109.22 0.06659999999999755
109.544 0.25
109.868 0.23329999999999984
110.19 0.1999999999999993
110.514 0.16659999999999897
110.836 0.11659999999999826
111.159 0.16659999999999897
111.483 0.09999999999999787
111.805 0.21659999999999968
112.129 0.11659999999999826
112.451 0.13329999999999842
112.775 0.18329999999999913
113.096 0.14999999999999858
113.42 0.1999999999999993
113.744 0.13329999999999842
114.066 0.14999999999999858
114.39 0.16659999999999897
114.711 0.09999999999999787
115.035 0.16659999999999897
115.357 0.14999999999999858
115.681 0.14999999999999858
116.004 0.3332999999999977
116.326 0.08329999999999771
116.65 0.3000000000000007
116.971 0.1999999999999993
117.295 0.06659999999999755
117.617 0.09999999999999787
117.94 0.16659999999999897
118.262 0.1999999999999993
118.586 0.1999999999999993
118.907 0.18329999999999913
119.231 0.18329999999999913
119.554 0.14999999999999858
119.876 0.18329999999999913
120.199 0.11659999999999826
120.521 0.1999999999999993
120.845 0.18329999999999913
121.166 0.18329999999999913
121.49 0.18329999999999913
121.811 0.1999999999999993
122.135 0.13329999999999842
122.456 0.31659999999999755
122.78 0.11659999999999826
123.101 0.14999999999999858
123.424 0.13329999999999842
123.746 0.3000000000000007
124.069 0.08329999999999771
124.391 0.11659999999999826
124.714 0.28330000000000055
125.035 0.13329999999999842
125.359 0.25
125.68 0.14999999999999858
126.004 0.14999999999999858
126.325 0.13329999999999842
126.648 0.16659999999999897
126.97 0.23329999999999984
127.291 0.21659999999999968
127.614 0.16659999999999897
127.935 0.1999999999999993
128.259 0.14999999999999858
128.58 0.1999999999999993
128.903 0.2666000000000004
129.224 0.1999999999999993
129.548 0.23329999999999984
129.869 0.1999999999999993
130.192 0.16659999999999897
130.513 0.1999999999999993
130.834 0.23329999999999984
131.158 0.13329999999999842
131.479 0.16659999999999897
131.802 0.28330000000000055
132.123 0.11659999999999826
132.446 0.25
132.767 0.23329999999999984
133.09 0.11659999999999826
133.411 0.18329999999999913
133.733 0.21659999999999968
134.056 0.21659999999999968
134.377 0.16659999999999897
134.7 0.1999999999999993
135.021 0.14999999999999858
135.342 0.14999999999999858
135.665 0.13329999999999842
135.986 0.13329999999999842
136.309 0.1999999999999993
136.63 0.16659999999999897
136.951 0.16659999999999897
137.274 0.21659999999999968
137.595 0.21659999999999968
137.918 0.18329999999999913
138.238 0.16659999999999897
138.559 0.14999999999999858
138.882 0.23329999999999984
139.203 0.21659999999999968
139.526 0.16659999999999897
139.847 0.1999999999999993
140.168 0.11659999999999826
140.491 0.1999999999999993
140.811 0.2666000000000004
141.132 0.1999999999999993
141.455 0.16659999999999897
141.776 0.19573086473440426
142.097 0.19783514547946268
142.419 0.19961889203402805
142.74 0.19987733170816924
143.061 0.19720252322056453
143.384 0.19462005821528194
143.704 0.1994886420946358
144.027 0.13329999999999842
144.348 0.1999999999999993
144.668 0.21659999999999968
144.991 0.18329999999999913
145.312 0.2666000000000004
145.632 0.14999999999999858
145.955 0.1999999999999993
146.276 0.14999999999999858
146.596 0.09999999999999787
146.917 0.14999999999999858
147.24 0.09999999999999787
147.56 0.28330000000000055
147.881 0.1999999999999993
148.203 0.25
148.524 0.1999999999999993
148.844 0.08329999999999771
149.167 0.14999999999999858
149.487 0.14999999999999858
149.808 0.1999999999999993
150.131 0.16659999999999897
150.451 0.1999999999999993
150.771 0.23329999999999984
151.092 0.09999999999999787
151.414 0.1999999999999993
151.735 0.13329999999999842
152.055 0.16659999999999897
152.378 0.18329999999999913
152.698 0.16659999999999897
153.018 0.21659999999999968
153.339 0.14999999999999858
153.661 0.16659999999999897
153.982 0.18329999999999913
154.302 0.13329999999999842
154.622 0.13329999999999842
154.945 0.23329999999999984
155.265 0.14999999999999858
155.585 0.1999999999999993
155.905 0.18329999999999913
156.228 0.09999999999999787
156.548 0.3000000000000007
156.868 0.16659999999999897
157.188 0.14999999999999858
157.511 0.03330000000000055
157.831 0.23329999999999984
158.151 0.21659999999999968
158.471 0.11659999999999826
158.794 0.21659999999999968
159.114 0.14999999999999858
159.434 0.25
159.754 0.16659999999999897
160.074 0.13329999999999842
160.396 0.16659999999999897
160.717 0.08329999999999771
161.037 0.2666000000000004
161.357 0.2666000000000004
161.679 0.05000000000000071
161.999 0.21659999999999968
162.319 0.25
162.639 0.1999999999999993
162.959 0.25
163.281 0.1999999999999993
163.601 0.25
163.921 0.25
164.241 0.1999999999999993
164.561 0.21659999999999968
164.881 0.09999999999999787
165.203 0.31659999999999755
165.523 0.11659999999999826
165.843 0.28330000000000055
166.163 0.14999999999999858
166.483 0.14999999999999858
166.803 0.23329999999999984
167.125 0.23329999999999984
167.445 0.3000000000000007
167.764 0.21659999999999968
168.084 0.23329999999999984
168.404 0.25
168.724 0.13329999999999842
169.046 0.21659999999999968
169.366 0.18329999999999913
169.685 0.23329999999999984
170.005 0.1999999999999993
170.325 0.25
170.645 0.25
170.964 0.11659999999999826
171.286 0.25
171.606 0.21659999999999968
171.926 0.18329999999999913
172.245 0.1999999999999993
172.565 0.18329999999999913
172.885 0.18329999999999913
173.204 0.1999999999999993
173.524 0.08329999999999771
173.846 0.18329999999999913
174.166 0.14999999999999858
174.485 0.18329999999999913
174.805 0.23329999999999984
175.124 0.14999999999999858
175.444 0.21659999999999968
175.764 0.25
176.083 0.25
176.403 0.25
176.722 0.1999999999999993
177.044 0.18329999999999913
177.363 0.23329999999999984
177.683 0.18329999999999913
178.002 0.2666000000000004
178.322 0.14999999999999858
178.641 0.18329999999999913
178.961 0.16659999999999897
179.28 0.23329999999999984
179.6 0.14999999999999858
179.919 0.13329999999999842
180.239 0.23329999999999984
180.558 0.23329999999999984
180.877 0.21659999999999968
181.197 0.06659999999999755
181.516 0.16659999999999897
181.838 0.1999999999999993
182.157 0.1999999999999993
182.476 0.16659999999999897
182.796 0.1999999999999993
183.115 0.16659999999999897
183.434 0.16659999999999897
183.754 0.13329999999999842
184.073 0.28330000000000055
184.392 0.18329999999999913
184.712 0.16659999999999897
185.031 0.23329999999999984
185.35 0.1999999999999993
185.669 0.13329999999999842
185.989 0.16659999999999897
186.308 0.23329999999999984
186.627 0.14999999999999858
186.946 0.2666000000000004
187.265 0.1999999999999993
187.585 0.09999999999999787
187.904 0.16659999999999897
188.223 0.18329999999999913
188.542 0.13329999999999842
188.861 0.1999999999999993
189.18 0.16659999999999897
189.499 0.16659999999999897
189.818 0.18329999999999913
190.138 0.06659999999999755
190.457 0.21659999999999968
190.776 0.1999999999999993
191.095 0.11659999999999826
191.414 0.3000000000000007
191.733 0.14999999999999858
192.052 0.1999999999999993
192.371 0.3000000000000007
192.69 0.1999999999999993
193.009 0.1999999999999993
193.328 0.18329999999999913
193.647 0.16659999999999897
193.966 0.16659999999999897
194.285 0.16659999999999897
194.602 0.2666000000000004
194.92 0.18329999999999913
195.239 0.1999999999999993
195.558 0.16659999999999897
195.877 0.2666000000000004
196.196 0.23329999999999984
196.515 0.16659999999999897
196.834 0.1999999999999993
197.153 0.14999999999999858
197.471 0.28330000000000055
197.79 0.16659999999999897
198.109 0.25
198.428 0.1999999999999993
198.747 0.1999999999999993
199.065 0.18329999999999913
199.382 0.16659999999999897
199.701 0.23329999999999984
200.02 0.23329999999999984
200.338 0.16659999999999897
200.657 0.23329999999999984
200.976 0.25
201.295 0.2666000000000004
201.613 0.2666000000000004
201.932 0.13329999999999842
202.251 0.16659999999999897
202.567 0.21659999999999968
202.886 0.18329999999999913
203.204 0.25
203.523 0.1999999999999993
203.842 0.13329999999999842
204.16 0.25
204.479 0.18329999999999913
204.797 0.25
205.114 0.16659999999999897
205.433 0.1999999999999993
205.751 0.25
206.07 0.16659999999999897
206.388 0.21659999999999968
206.707 0.21659999999999968
207.025 0.1999999999999993
207.342 0.21659999999999968
207.66 0.1999999999999993
207.979 0.23329999999999984
208.297 0.23329999999999984
208.615 0.31659999999999755
208.934 0.18329999999999913
209.25 0.1999999999999993
209.569 0.18329999999999913
209.887 0.11659999999999826
210.205 0.3332999999999977
210.524 0.21659999999999968
210.842 0.28330000000000055
211.158 0.16659999999999897
211.477 0.34999999999999787
211.795 0.36659999999999826
212.113 0.16659999999999897
212.432 0.21659999999999968
212.75 0.13329999999999842
213.066 0.16659999999999897
213.385 0.25
213.703 0.16659999999999897
214.021 0.25
214.339 0.21659999999999968
214.656 0.3332999999999977
214.974 0.25
215.292 0.1999999999999993
215.61 0.2666000000000004
215.926 0.16659999999999897
216.245 0.23329999999999984
216.563 0.18329999999999913
216.881 0.25
217.199 0.11659999999999826
217.515 0.3000000000000007
217.833 0.14999999999999858
218.151 0.1999999999999993
218.469 0.18329999999999913
218.785 0.18329999999999913
219.104 0.08329999999999771
219.422 0.25
219.74 0.25
220.056 0.14999999999999858
220.374 0.3000000000000007
220.692 0.3000000000000007
221.01 0.28330000000000055
221.326 0.1999999999999993
221.644 0.31659999999999755
221.962 0.1999999999999993
222.28 0.1999999999999993
222.596 0.14999999999999858
222.914 0.21659999999999968
223.232 0.21659999999999968
223.547 0.2666000000000004
223.865 0.1999999999999993
224.183 0.21659999999999968
224.501 0.16659999999999897
224.817 0.14999999999999858
225.135 0.28330000000000055
225.453 0.28330000000000055
225.768 0.3000000000000007
226.086 0.25
226.404 0.23329999999999984
226.722 0.21659999999999968
227.038 0.13329999999999842
227.355 0.2666000000000004
227.673 0.21659999999999968
227.989 0.13329999999999842
228.307 0.3000000000000007
228.625 0.23329999999999984
228.94 0.1999999999999993
229.258 0.31659999999999755
229.576 0.1999999999999993
229.891 0.21659999999999968
230.209 0.13329999999999842
230.527 0.23329999999999984
230.842 0.18329999999999913
231.16 0.21659999999999968
231.478 0.18329999999999913
231.793 0.14999999999999858
232.111 0.21659999999999968
232.428 0.09999999999999787
232.744 0.36659999999999826
233.062 0.21659999999999968
233.379 0.23329999999999984
233.695 0.21659999999999968
234.012 0.1999999999999993
234.33 0.2666000000000004
234.645 0.21659999999999968
234.963 0.28330000000000055
235.278 0.34999999999999787
235.596 0.23329999999999984
235.913 0.2666000000000004
236.229 0.23329999999999984
236.546 0.25
236.864 0.3000000000000007
237.179 0.28330000000000055
237.497 0.3332999999999977
237.812 0.1999999999999993
238.129 0.16659999999999897
238.447 0.3000000000000007
238.762 0.21659999999999968
239.08 0.25
239.395 0.21659999999999968
239.712 0.36659999999999826
240.03 0.13329999999999842
240.345 0.21659999999999968
240.662 0.28330000000000055
240.978 0.31659999999999755
241.295 0.25
241.61 0.21659999999999968
241.927 0.14999999999999858
242.245 0.3332999999999977
242.56 0.28330000000000055
242.877 0.14999999999999858
243.192 0.25
243.51 0.2666000000000004
243.825 0.28330000000000055
244.142 0.23329999999999984
244.459 0.21659999999999968
244.774 0.1999999999999993
245.092 0.25
245.407 0.31659999999999755
245.724 0.23329999999999984
246.039 0.28330000000000055
246.356 0.1999999999999993
246.671 0.23329999999999984
246.988 0.3332999999999977
247.303 0.23329999999999984
247.62 0.23329999999999984
247.938 0.41659999999999897
248.253 0.23329999999999984
248.57 0.3999999999999986
248.885 0.28330000000000055
249.202 0.2666000000000004
249.517 0.31659999999999755
249.834 0.28330000000000055
250.149 0.25
250.466 0.28330000000000055
250.781 0.23329999999999984
251.098 0.14999999999999858
251.412 0.1999999999999993
251.729 0.25
252.044 0.3000000000000007
252.361 0.3000000000000007
252.676 0.31659999999999755
252.993 0.3332999999999977
253.308 0.25
253.625 0.2666000000000004
253.94 0.2666000000000004
254.256 0.2666000000000004
254.571 0.25
254.888 0.2666000000000004
255.203 0.21659999999999968
255.518 0.25
255.834 0.1999999999999993
256.149 0.25
256.466 0.2666000000000004
256.781 0.28330000000000055
257.097 0.1999999999999993
257.412 0.1999999999999993
257.729 0.28330000000000055
258.044 0.23329999999999984
258.36 0.1999999999999993
258.675 0.3832999999999984
258.99 0.2666000000000004
259.306 0.1999999999999993
259.621 0.18329999999999913
259.938 0.23329999999999984
260.252 0.28330000000000055
260.569 0.2666000000000004
260.883 0.28330000000000055
261.198 0.2666000000000004
261.515 0.2666000000000004
261.829 0.16659999999999897
262.146 0.25
262.46 0.31659999999999755
262.775 0.1999999999999993
263.091 0.21659999999999968
263.406 0.3000000000000007
263.723 0.31659999999999755
264.037 0.23329999999999984
264.354 0.21659999999999968
264.668 0.21659999999999968
264.982 0.25
265.299 0.28330000000000055
265.613 0.23329999999999984
265.928 0.25
266.244 0.16659999999999897
266.559 0.23329999999999984
266.875 0.2666000000000004
267.189 0.2666000000000004
267.504 0.3000000000000007
267.82 0.2666000000000004
268.134 0.3000000000000007
268.449 0.18329999999999913
268.765 0.25
269.079 0.25
269.394 0.1999999999999993
269.71 0.2666000000000004
270.024 0.25
270.341 0.23329999999999984
270.655 0.16659999999999897
270.969 0.18329999999999913
271.286 0.25
271.6 0.21659999999999968
271.914 0.25
272.23 0.3000000000000007
272.544 0.25
272.859 0.13329999999999842
273.175 0.2666000000000004
273.489 0.1999999999999993
273.803 0.25
274.119 0.31659999999999755
274.433 0.16659999999999897
274.747 0.21659999999999968
275.062 0.16659999999999897
275.378 0.11659999999999826
275.692 0.18329999999999913
276.006 0.36659999999999826
276.322 0.18329999999999913
276.636 0.3000000000000007
276.95 0.18329999999999913
277.266 0.14999999999999858
277.58 0.18329999999999913
277.894 0.28330000000000055
278.208 0.21659999999999968
278.524 0.21659999999999968
278.838 0.21659999999999968
279.152 0.31659999999999755
279.468 0.3000000000000007
279.782 0.23329999999999984
280.096 0.14999999999999858
280.41 0.3832999999999984
280.726 0.2666000000000004
281.04 0.14999999999999858
281.354 0.18329999999999913
281.668 0.3000000000000007
281.983 0.2666000000000004
282.297 0.14999999999999858
282.611 0.16659999999999897
282.925 0.1999999999999993
283.241 0.3332999999999977
283.555 0.28330000000000055
283.868 0.21659999999999968
284.182 0.3832999999999984
284.498 0.18329999999999913
284.812 0.31659999999999755
285.126 0.16659999999999897
285.439 0.21659999999999968
285.753 0.16659999999999897
286.069 0.2666000000000004
286.383 0.3000000000000007
286.696 0.2666000000000004
287.01 0.3000000000000007
287.326 0.28330000000000055
287.639 0.25
287.953 0.13329999999999842
288.267 0.28330000000000055
288.58 0.31659999999999755
288.896 0.23329999999999984
289.21 0.28330000000000055
289.523 0.23329999999999984
289.837 0.31659999999999755
290.15 0.21659999999999968
290.466 0.25
290.78 0.25
291.093 0.1999999999999993
291.407 0.23329999999999984
291.72 0.21659999999999968
292.034 0.3000000000000007
292.349 0.18329999999999913
292.663 0.3000000000000007
292.976 0.23329999999999984
293.29 0.25
293.603 0.3000000000000007
293.917 0.2666000000000004
294.232 0.23329999999999984
294.546 0.21659999999999968
294.859 0.28330000000000055
295.172 0.3000000000000007
295.486 0.31659999999999755
295.799 0.28330000000000055
296.113 0.2666000000000004
296.428 0.1999999999999993
296.741 0.3332999999999977
297.055 0.3000000000000007
297.368 0.23329999999999984
297.681 0.21659999999999968
297.995 0.23329999999999984
298.308 0.14999999999999858
298.621 0.18329999999999913
298.937 0.3332999999999977
299.25 0.25
299.563 0.2666000000000004
299.876 0.3332999999999977
300.19 0.25
300.503 0.31659999999999755
300.816 0.1999999999999993
301.129 0.21659999999999968
301.442 0.18329999999999913
301.756 0.1999999999999993
302.071 0.2666000000000004
302.384 0.25
302.697 0.2666000000000004
303.01 0.1999999999999993
303.323 0.25
303.637 0.3000000000000007
303.95 0.23329999999999984
304.263 0.21659999999999968
304.576 0.18329999999999913
304.889 0.18329999999999913
305.202 0.21659999999999968
305.515 0.25
305.828 0.25
306.141 0.23329999999999984
306.456 0.2666000000000004
306.769 0.3332999999999977
307.082 0.18329999999999913
307.395 0.3332999999999977
307.708 0.3000000000000007
308.021 0.18329999999999913
308.334 0.28330000000000055
308.647 0.1999999999999993
308.96 0.3000000000000007
309.273 0.31659999999999755
309.586 0.14999999999999858
309.899 0.3000000000000007
310.212 0.23329999999999984
310.525 0.2666000000000004
310.838 0.1999999999999993
311.15 0.34999999999999787
311.463 0.28330000000000055
311.776 0.23329999999999984
312.089 0.23329999999999984
312.402 0.28330000000000055
312.715 0.18329999999999913
313.027 0.25
313.34 0.16659999999999897
313.653 0.1999999999999993
313.966 0.3000000000000007
314.278 0.2666000000000004
314.591 0.31659999999999755
314.904 0.21659999999999968
315.217 0.25
315.529 0.25
315.842 0.3332999999999977
316.155 0.3999999999999986
316.467 0.25
316.78 0.31659999999999755
317.093 0.3000000000000007
317.405 0.25
317.718 0.23329999999999984
318.031 0.2666000000000004
318.343 0.2666000000000004
318.656 0.34999999999999787
318.969 0.23329999999999984
319.281 0.21659999999999968
319.592 0.3000000000000007
319.904 0.31659999999999755
320.217 0.28330000000000055
320.529 0.36659999999999826
320.842 0.25
321.154 0.23329999999999984
321.467 0.1999999999999993
321.779 0.31659999999999755
322.092 0.23329999999999984
322.404 0.31659999999999755
322.717 0.3332999999999977
323.029 0.3832999999999984
323.342 0.3000000000000007
323.654 0.28330000000000055
323.965 0.1999999999999993
324.277 0.3000000000000007
324.589 0.31659999999999755
324.902 0.1999999999999993
325.214 0.36659999999999826
325.527 0.25
325.839 0.3000000000000007
326.151 0.23329999999999984
326.464 0.23329999999999984
326.776 0.2666000000000004
327.086 0.36659999999999826
327.399 0.28330000000000055
327.711 0.3832999999999984
328.023 0.3000000000000007
328.335 0.43329999999999913
328.648 0.2666000000000004
328.96 0.41659999999999897
329.27 0.36659999999999826
329.582 0.31659999999999755
329.895 0.3999999999999986
330.207 0.36659999999999826
330.519 0.43329999999999913
330.831 0.3332999999999977
331.143 0.34999999999999787
331.454 0.31659999999999755
331.766 0.41659999999999897
332.078 0.36659999999999826
332.39 0.36659999999999826
332.702 0.3332999999999977
333.014 0.3000000000000007
333.326 0.2666000000000004
333.636 0.34999999999999787
333.948 0.3832999999999984
334.261 0.31659999999999755
334.573 0.36659999999999826
334.885 0.3832999999999984
335.195 0.3000000000000007
335.507 0.36659999999999826
335.819 0.3999999999999986
336.131 0.31659999999999755
336.443 0.25
336.753 0.23329999999999984
337.065 0.36659999999999826
337.377 0.25
337.689 0.28330000000000055
338.001 0.28330000000000055
338.31 0.31659999999999755
338.622 0.25
338.934 0.3332999999999977
339.246 0.2666000000000004
339.558 0.28330000000000055
339.868 0.3000000000000007
340.18 0.43329999999999913
340.492 0.3999999999999986
340.804 0.31659999999999755
341.113 0.18329999999999913
341.425 0.36659999999999826
341.737 0.28330000000000055
342.049 0.3332999999999977
342.361 0.36659999999999826
342.67 0.1999999999999993
342.982 0.28330000000000055
343.294 0.3332999999999977
343.606 0.3000000000000007
343.915 0.3332999999999977
344.227 0.3000000000000007
344.539 0.3000000000000007
344.849 0.21659999999999968
345.16 0.3000000000000007
345.472 0.31659999999999755
345.784 0.43329999999999913
346.093 0.3332999999999977
346.405 0.1999999999999993
346.717 0.43329999999999913
347.028 0.34999999999999787
347.338 0.34999999999999787
347.649 0.3000000000000007
347.961 0.36659999999999826
348.271 0.3000000000000007
348.582 0.3832999999999984
348.894 0.31659999999999755
349.205 0.34999999999999787
349.515 0.34999999999999787
349.826 0.3000000000000007
350.138 0.25
350.447 0.2666000000000004
350.759 0.31659999999999755
351.07 0.3332999999999977
351.38 0.3000000000000007
351.691 0.31659999999999755
352.003 0.36659999999999826
352.312 0.34999999999999787
352.624 0.3000000000000007
352.935 0.3332999999999977
353.245 0.4499999999999993
353.556 0.3332999999999977
353.867 0.31659999999999755
354.177 0.3999999999999986
354.488 0.41659999999999897
354.799 0.41659999999999897
355.109 0.3999999999999986
355.42 0.23329999999999984
355.732 0.31659999999999755
356.041 0.41659999999999897
356.352 0.21659999999999968
356.663 0.3000000000000007
356.973 0.3999999999999986
357.284 0.43329999999999913
357.593 0.2666000000000004
357.905 0.1999999999999993
358.216 0.4499999999999993
358.525 0.31659999999999755
358.836 0.25
359.147 0.23329999999999984
359.457 0.3999999999999986
359.768 0.28330000000000055
360.077 0.3332999999999977
360.388 0.28330000000000055
360.699 0.34999999999999787
361.008 0.1999999999999993
361.32 0.36659999999999826
361.629 0.18329999999999913
361.94 0.3332999999999977
362.251 0.34999999999999787
362.56 0.36659999999999826
362.871 0.2666000000000004
363.18 0.23329999999999984
363.491 0.3999999999999986
363.8 0.31659999999999755
364.111 0.21659999999999968
364.422 0.3332999999999977
364.731 0.1999999999999993
365.042 0.2666000000000004
365.351 0.31659999999999755
365.662 0.28330000000000055
365.971 0.2666000000000004
366.282 0.21659999999999968
366.593 0.31659999999999755
366.902 0.3000000000000007
367.213 0.25
367.522 0.43329999999999913
367.833 0.3332999999999977
368.142 0.23329999999999984
368.453 0.31659999999999755
368.762 0.23329999999999984
369.073 0.2666000000000004
369.381 0.34999999999999787
369.692 0.3000000000000007
370.001 0.2666000000000004
370.312 0.28330000000000055
370.623 0.3332999999999977
370.932 0.21659999999999968
371.242 0.31659999999999755
371.551 0.31659999999999755
371.862 0.31659999999999755
372.171 0.31659999999999755
372.482 0.34999999999999787
372.79 0.28330000000000055
373.101 0.28330000000000055
373.41 0.1999999999999993
373.721 0.3332999999999977
374.029 0.23329999999999984
374.34 0.3000000000000007
374.649 0.3332999999999977
374.959 0.3000000000000007
375.268 0.3000000000000007
375.577 0.18329999999999913
375.887 0.3332999999999977
376.196 0.3000000000000007
376.506 0.3332999999999977
376.815 0.2666000000000004
377.126 0.28330000000000055
377.434 0.28330000000000055
377.745 0.31659999999999755
378.053 0.2666000000000004
378.364 0.3332999999999977
378.672 0.31659999999999755
378.983 0.3332999999999977
379.292 0.31659999999999755
379.6 0.4499999999999993
379.911 0.28330000000000055
380.219 0.25
380.53 0.25
380.838 0.3332999999999977
381.148 0.31659999999999755
381.457 0.5
381.767 0.3000000000000007
382.076 0.43329999999999913
382.384 0.34999999999999787
382.695 0.2666000000000004
383.003 0.34999999999999787
383.313 0.34999999999999787
383.622 0.34999999999999787
383.93 0.28330000000000055
384.24 0.2666000000000004
384.549 0.21659999999999968
384.859 0.31659999999999755
385.167 0.5166000000000004
385.476 0.1999999999999993
385.786 0.3000000000000007
386.094 0.3832999999999984
386.405 0.1999999999999993
386.713 0.3332999999999977
387.021 0.28330000000000055
387.331 0.25
387.64 0.3332999999999977
387.948 0.3000000000000007
388.258 0.21659999999999968
388.566 0.23329999999999984
388.877 0.3999999999999986
389.185 0.34999999999999787
389.493 0.3999999999999986
389.803 0.41659999999999897
390.111 0.3332999999999977
390.419 0.36659999999999826
390.729 0.31659999999999755
391.038 0.34999999999999787
391.346 0.3832999999999984
391.656 0.3832999999999984
391.964 0.3832999999999984
392.272 0.3832999999999984
392.582 0.31659999999999755
392.89 0.41659999999999897
393.198 0.3832999999999984
393.508 0.31659999999999755
393.816 0.3000000000000007
394.124 0.3000000000000007
394.434 0.34999999999999787
394.742 0.3999999999999986
395.05 0.28330000000000055
395.36 0.5166000000000004
395.668 0.28330000000000055
395.976 0.41659999999999897
396.286 0.23329999999999984
396.594 0.3999999999999986
396.902 0.3332999999999977
397.21 0.31659999999999755
397.52 0.28330000000000055
397.828 0.3332999999999977
398.135 0.3332999999999977
398.445 0.36659999999999826
398.753 0.34999999999999787
399.061 0.28330000000000055
399.369 0.23329999999999984
399.679 0.3999999999999986
399.987 0.34999999999999787
400.294 0.31659999999999755
400.604 0.34999999999999787
400.912 0.25
401.22 0.3332999999999977
401.527 0.3832999999999984
401.837 0.31659999999999755
402.145 0.31659999999999755
402.453 0.34999999999999787
402.76 0.3999999999999986
403.07 0.34999999999999787
403.378 0.3332999999999977
403.686 0.5500000000000007
403.993 0.2666000000000004
404.303 0.34999999999999787
404.611 0.3832999999999984
404.918 0.3332999999999977
405.226 0.36659999999999826
405.533 0.31659999999999755
405.843 0.31659999999999755
406.151 0.3999999999999986
406.458 0.41659999999999897
406.766 0.3332999999999977
407.076 0.36659999999999826
407.383 0.5
407.691 0.2666000000000004
407.998 0.41659999999999897
408.306 0.36659999999999826
408.615 0.3999999999999986
408.923 0.36659999999999826
409.23 0.43329999999999913
409.538 0.4499999999999993
409.845 0.41659999999999897
410.153 0.43329999999999913
410.462 0.5500000000000007
410.77 0.34999999999999787
411.077 0.5166000000000004
411.384 0.5166000000000004
411.692 0.3832999999999984
412.001 0.5166000000000004
412.309 0.3999999999999986
412.616 0.5
412.923 0.48329999999999984
413.231 0.5500000000000007
413.538 0.34999999999999787
413.845 0.4665999999999997
414.155 0.5665999999999976
414.462 0.6499999999999986
414.769 0.34999999999999787
415.077 0.5
415.384 0.5
415.691 0.5333000000000006
415.999 0.5
416.308 0.6499999999999986
416.615 0.5999999999999979
416.922 0.43329999999999913
417.23 0.666599999999999
417.537 0.6999999999999993
417.844 0.7666000000000004
418.151 0.6832999999999991
418.458 0.7332999999999998
418.768 0.8332999999999977
419.075 0.8499999999999979
419.382 0.8999999999999986
419.689 0.8665999999999983
419.996 1.0166000000000004
420.303 0.9832999999999998
420.61 0.8165999999999976
420.918 1.3332999999999977
421.225 1.166599999999999
421.532 1.1999999999999993
421.841 1.0665999999999976
422.148 1.0832999999999977
422.455 1.1999999999999993
422.762 1.2165999999999997
423.069 1.2666000000000004
423.376 1.2666000000000004
423.683 1.3499999999999979
423.99 1.4499999999999993
424.297 1.4832999999999998
424.604 1.3665999999999983
424.911 1.1832999999999991
425.218 1.2666000000000004
425.525 1.3332999999999977
425.832 1.4332999999999991
426.139 1.3165999999999976
426.446 1.1499999999999986
426.753 0.9832999999999998
427.061 1.1999999999999993
427.368 1.0832999999999977
427.675 0.9832999999999998
427.982 1.1499999999999986
428.289 1.0
428.596 1.0832999999999977
428.903 0.8332999999999977
429.209 0.9665999999999997
429.516 0.9499999999999993
429.823 0.8332999999999977
430.13 0.8832999999999984
430.437 0.9332999999999991
430.743 0.8165999999999976
431.05 0.8165999999999976
431.357 0.6999999999999993
431.664 0.666599999999999
431.97 0.5999999999999979
432.277 0.5999999999999979
432.584 0.5999999999999979
432.891 0.6332999999999984
433.197 0.5999999999999979
433.504 0.5665999999999976
433.811 0.6999999999999993
434.117 0.5
434.424 0.6999999999999993
434.731 0.5166000000000004
435.037 0.5500000000000007
435.344 0.5166000000000004
435.65 0.5665999999999976
435.957 0.5665999999999976
436.262 0.5832999999999977
436.568 0.3999999999999986
436.875 0.48329999999999984
437.181 0.4665999999999997
437.488 0.5166000000000004
437.794 0.41659999999999897
438.101 0.48329999999999984
438.407 0.4665999999999997
438.714 0.5
439.02 0.3332999999999977
439.327 0.41659999999999897
439.633 0.48329999999999984
439.94 0.34999999999999787
440.246 0.3999999999999986
440.553 0.5
440.859 0.5166000000000004
441.163 0.28330000000000055
441.47 0.3999999999999986
441.776 0.5166000000000004
442.083 0.3999999999999986
442.389 0.5665999999999976
442.695 0.36659999999999826
443.002 0.43329999999999913
443.308 0.3832999999999984
443.614 0.28330000000000055
443.921 0.43329999999999913
444.225 0.36659999999999826
444.531 0.36659999999999826
444.838 0.4499999999999993
445.144 0.4665999999999997
445.45 0.6165999999999983
445.757 0.3332999999999977
446.063 0.3332999999999977
446.369 0.5
446.675 0.4665999999999997
446.979 0.5
447.286 0.5
447.592 0.3999999999999986
447.898 0.41659999999999897
448.204 0.3999999999999986
448.51 0.48329999999999984
448.817 0.34999999999999787
449.121 0.3832999999999984
449.427 0.5
449.733 0.48329999999999984
450.039 0.3832999999999984
450.345 0.48329999999999984
450.651 0.5166000000000004
450.955 0.4499999999999993
451.261 0.6165999999999983
451.568 0.3332999999999977
451.874 0.5333000000000006
452.18 0.43329999999999913
452.486 0.4499999999999993
452.79 0.5333000000000006
453.096 0.3000000000000007
453.402 0.36659999999999826
453.708 0.4499999999999993
454.014 0.5
454.318 0.3332999999999977
454.624 0.5500000000000007
454.93 0.5166000000000004
455.236 0.5
455.541 0.4499999999999993
455.845 0.4665999999999997
456.151 0.4499999999999993
456.457 0.28330000000000055
456.763 0.43329999999999913
457.067 0.41659999999999897
457.373 0.43329999999999913
457.679 0.28330000000000055
457.985 0.48329999999999984
458.29 0.4499999999999993
458.594 0.3000000000000007
458.9 0.43329999999999913
459.206 0.3332999999999977
459.512 0.3832999999999984
459.815 0.34999999999999787
460.121 0.43329999999999913
460.427 0.34999999999999787
460.733 0.3999999999999986
461.036 0.5166000000000004
461.342 0.3000000000000007
461.648 0.34999999999999787
461.954 0.41659999999999897
462.257 0.4499999999999993
462.563 0.4665999999999997
462.869 0.5333000000000006
463.172 0.4665999999999997
463.478 0.2666000000000004
463.784 0.28330000000000055
464.089 0.5
464.393 0.36659999999999826
464.699 0.31659999999999755
465.004 0.43329999999999913
465.308 0.34999999999999787
465.613 0.4499999999999993
465.919 0.41659999999999897
466.225 0.3832999999999984
466.528 0.34999999999999787
466.834 0.3332999999999977
467.139 0.41659999999999897
467.443 0.41659999999999897
467.748 0.3999999999999986
468.054 0.34999999999999787
468.357 0.41659999999999897
468.663 0.4665999999999997
468.968 0.4499999999999993
469.272 0.4499999999999993
469.577 0.3832999999999984
469.883 0.36659999999999826
470.186 0.4665999999999997
470.492 0.36659999999999826
470.797 0.4499999999999993
471.1 0.4499999999999993
471.406 0.25
471.711 0.3332999999999977
472.014 0.36659999999999826
472.32 0.5
472.625 0.34999999999999787
472.929 0.34999999999999787
473.234 0.41659999999999897
473.539 0.43329999999999913
473.843 0.5665999999999976
474.148 0.4665999999999997
474.451 0.4665999999999997
474.756 0.3832999999999984
475.062 0.3832999999999984
475.365 0.4499999999999993
475.67 0.4665999999999997
475.973 0.3832999999999984
476.279 0.5832999999999977
476.584 0.43329999999999913
476.887 0.6999999999999993
477.192 0.5500000000000007
477.498 0.6332999999999984
477.801 0.6499999999999986
478.106 0.5999999999999979
478.409 0.9665999999999997
478.714 0.7666000000000004
479.017 0.75
479.322 0.6999999999999993
479.628 0.8332999999999977
479.931 0.8999999999999986
480.236 0.916599999999999
480.539 0.8499999999999979
480.844 0.8165999999999976
481.147 0.9665999999999997
481.452 0.8999999999999986
481.757 0.916599999999999
482.06 0.916599999999999
482.365 0.75
482.668 0.666599999999999
482.973 0.9332999999999991
483.276 0.6165999999999983
483.581 0.6832999999999991
483.884 0.5832999999999977
484.189 0.5999999999999979
484.494 0.43329999999999913
484.797 0.5166000000000004
485.102 0.5832999999999977
485.405 0.48329999999999984
485.71 0.3332999999999977
486.013 0.31659999999999755
486.318 0.3832999999999984
486.621 0.36659999999999826
486.925 0.36659999999999826
487.228 0.4665999999999997
487.533 0.48329999999999984
487.836 0.36659999999999826
488.141 0.5333000000000006
488.444 0.3832999999999984
488.748 0.3999999999999986
489.051 0.3000000000000007
489.356 0.43329999999999913
489.659 0.36659999999999826
489.964 0.3832999999999984
490.266 0.41659999999999897
490.571 0.48329999999999984
490.874 0.3000000000000007
491.179 0.3332999999999977
491.481 0.3999999999999986
491.786 0.28330000000000055
492.089 0.43329999999999913
492.393 0.3999999999999986
492.696 0.3332999999999977
493.001 0.3999999999999986
493.303 0.36659999999999826
493.606 0.3999999999999986
493.911 0.2666000000000004
494.213 0.31659999999999755
494.518 0.2666000000000004
494.821 0.3999999999999986
495.125 0.3999999999999986
495.428 0.3999999999999986
495.732 0.34999999999999787
496.035 0.4499999999999993
496.337 0.41659999999999897
496.642 0.23329999999999984
496.945 0.3999999999999986
497.249 0.3332999999999977
497.552 0.31659999999999755
497.856 0.3999999999999986
498.159 0.2666000000000004
498.461 0.2666000000000004
498.766 0.31659999999999755
499.068 0.34999999999999787
499.372 0.3832999999999984
499.675 0.3332999999999977
499.977 0.34999999999999787
500.282 0.36659999999999826
500.584 0.3832999999999984
500.889 0.48329999999999984
501.191 0.3332999999999977
501.493 0.31659999999999755
501.798 0.2666000000000004
502.1 0.3332999999999977
502.402 0.3332999999999977
502.707 0.16659999999999897
503.009 0.31659999999999755
503.314 0.41659999999999897
503.616 0.25
503.918 0.41659999999999897
504.222 0.3832999999999984
504.525 0.31659999999999755
504.827 0.31659999999999755
505.131 0.31659999999999755
505.433 0.31659999999999755
505.736 0.1999999999999993
506.04 0.25
506.342 0.36659999999999826
506.646 0.2666000000000004
506.949 0.31659999999999755
507.251 0.36659999999999826
507.555 0.3000000000000007
507.857 0.36659999999999826
508.159 0.34999999999999787
508.461 0.36659999999999826
508.766 0.31659999999999755
509.068 0.3332999999999977
509.37 0.3000000000000007
509.674 0.4499999999999993
509.976 0.36659999999999826
510.278 0.34999999999999787
510.582 0.3000000000000007
510.884 0.36659999999999826
511.186 0.34999999999999787
511.49 0.34999999999999787
511.792 0.36659999999999826
512.094 0.2666000000000004
512.396 0.2666000000000004
512.701 0.36659999999999826
513.003 0.4499999999999993
513.305 0.31659999999999755
513.609 0.2666000000000004
513.91 0.28330000000000055
514.212 0.3000000000000007
514.514 0.34999999999999787
514.818 0.25
515.12 0.36659999999999826
515.422 0.3332999999999977
515.724 0.3332999999999977
516.028 0.3000000000000007
516.33 0.3332999999999977
516.632 0.36659999999999826
516.934 0.1999999999999993
517.237 0.31659999999999755
517.539 0.36659999999999826
517.841 0.25
518.143 0.3832999999999984
518.447 0.3332999999999977
518.749 0.3000000000000007
519.05 0.34999999999999787
519.352 0.41659999999999897
519.656 0.23329999999999984
519.958 0.3999999999999986
520.26 0.28330000000000055
520.561 0.41659999999999897
520.863 0.36659999999999826
521.167 0.4499999999999993
521.468 0.3999999999999986
521.77 0.3832999999999984
522.072 0.2666000000000004
522.376 0.3832999999999984
522.677 0.3832999999999984
522.979 0.25
523.281 0.34999999999999787
523.582 0.2666000000000004
523.884 0.4665999999999997
524.187 0.3832999999999984
524.489 0.41659999999999897
524.791 0.4499999999999993
525.092 0.3832999999999984
525.394 0.3832999999999984
525.697 0.41659999999999897
525.999 0.3832999999999984
526.301 0.36659999999999826
526.602 0.23329999999999984
526.904 0.3832999999999984
527.205 0.34999999999999787
527.507 0.3999999999999986
527.81 0.31659999999999755
528.112 0.43329999999999913
528.413 0.3000000000000007
528.715 0.34999999999999787
529.016 0.3832999999999984
529.318 0.4499999999999993
529.619 0.36659999999999826
529.922 0.36659999999999826
530.224 0.3832999999999984
530.525 0.3332999999999977
530.827 0.3332999999999977
531.128 0.28330000000000055
531.429 0.36659999999999826
531.731 0.5
532.032 0.34999999999999787
532.336 0.3832999999999984
532.637 0.3332999999999977
532.938 0.36659999999999826
533.24 0.3832999999999984
533.541 0.3832999999999984
533.842 0.4499999999999993
534.143 0.3332999999999977
534.445 0.3999999999999986
534.746 0.36659999999999826
535.047 0.34999999999999787
535.351 0.4499999999999993
535.652 0.3000000000000007
535.953 0.3999999999999986
536.254 0.25
536.555 0.31659999999999755
536.857 0.3832999999999984
537.158 0.34999999999999787
537.459 0.31659999999999755
537.76 0.43329999999999913
538.061 0.3332999999999977
538.362 0.28330000000000055
538.664 0.3999999999999986
538.965 0.3832999999999984
539.266 0.23329999999999984
539.567 0.3832999999999984
539.868 0.34999999999999787
540.169 0.21659999999999968
540.472 0.3000000000000007
540.773 0.41659999999999897
541.074 0.31659999999999755
541.375 0.3332999999999977
541.677 0.3832999999999984
541.978 0.4499999999999993
542.279 0.34999999999999787
542.58 0.36659999999999826
542.881 0.34999999999999787
543.182 0.4499999999999993
543.483 0.28330000000000055
543.784 0.3999999999999986
544.085 0.3832999999999984
544.385 0.48329999999999984
544.686 0.25
544.987 0.3832999999999984
545.288 0.34999999999999787
545.589 0.34999999999999787
545.89 0.3832999999999984
546.191 0.3832999999999984
546.492 0.3832999999999984
546.793 0.25
547.094 0.43329999999999913
547.394 0.3999999999999986
547.695 0.41659999999999897
547.996 0.5333000000000006
548.297 0.41659999999999897
548.596 0.5166000000000004
548.897 0.5166000000000004
549.197 0.4499999999999993
549.498 0.43329999999999913
549.799 0.4499999999999993
550.1 0.48329999999999984
550.4 0.5333000000000006
550.701 0.5
551.002 0.5333000000000006
551.303 0.48329999999999984
551.603 0.5999999999999979
551.904 0.5
552.205 0.5665999999999976
552.505 0.48329999999999984
552.806 0.43329999999999913
553.107 0.5
553.407 0.5999999999999979
553.706 0.5832999999999977
554.007 0.5999999999999979
554.307 0.5832999999999977
554.608 0.4499999999999993
554.909 0.5166000000000004
555.209 0.6499999999999986
555.51 0.3999999999999986
555.81 0.4499999999999993
556.111 0.6332999999999984
556.411 0.5
556.71 0.5832999999999977
557.01 0.5999999999999979
557.311 0.5333000000000006
557.612 0.36659999999999826
557.912 0.5665999999999976
558.213 0.6332999999999984
558.513 0.48329999999999984
558.813 0.5333000000000006
559.112 0.43329999999999913
559.412 0.5500000000000007
559.713 0.5
560.013 0.3999999999999986
560.314 0.41659999999999897
560.614 0.5166000000000004
560.914 0.4665999999999997
561.213 0.5500000000000007
561.513 0.3999999999999986
561.814 0.4499999999999993
562.114 0.5500000000000007
562.414 0.34999999999999787
562.715 0.34999999999999787
563.015 0.43329999999999913
563.313 0.41659999999999897
563.614 0.4499999999999993
563.914 0.4665999999999997
564.214 0.5832999999999977
564.515 0.3000000000000007
564.813 0.3999999999999986
565.113 0.43329999999999913
565.413 0.3832999999999984
565.714 0.3832999999999984
566.014 0.41659999999999897
566.312 0.36659999999999826
566.612 0.3832999999999984
566.912 0.36659999999999826
567.213 0.4499999999999993
567.513 0.3332999999999977
567.811 0.3832999999999984
568.111 0.4665999999999997
568.411 0.3332999999999977
568.712 0.34999999999999787
569.012 0.3999999999999986
569.31 0.34999999999999787
569.61 0.2666000000000004
569.91 0.2666000000000004
570.21 0.3332999999999977
570.508 0.3999999999999986
570.808 0.3832999999999984
571.108 0.36659999999999826
571.408 0.31659999999999755
571.706 0.43329999999999913
572.006 0.3332999999999977
572.306 0.34999999999999787
572.607 0.3832999999999984
572.904 0.34999999999999787
573.204 0.36659999999999826
573.505 0.34999999999999787
573.805 0.34999999999999787
574.102 0.28330000000000055
574.402 0.3332999999999977
574.702 0.43329999999999913
575.002 0.41659999999999897
575.3 0.3832999999999984
575.6 0.4665999999999997
575.9 0.3332999999999977
576.198 0.3000000000000007
576.498 0.3999999999999986
576.798 0.34999999999999787
577.098 0.3000000000000007
577.395 0.43329999999999913
577.695 0.4499999999999993
577.995 0.3832999999999984
578.293 0.28330000000000055
578.593 0.2666000000000004
578.893 0.3332999999999977
579.19 0.28330000000000055
579.49 0.28330000000000055
579.79 0.34999999999999787
580.088 0.34999999999999787
580.387 0.31659999999999755
580.687 0.4499999999999993
580.985 0.2666000000000004
581.285 0.5333000000000006
581.584 0.3332999999999977
581.882 0.3000000000000007
582.182 0.3000000000000007
582.482 0.2666000000000004
582.779 0.4665999999999997
583.079 0.23329999999999984
583.378 0.3332999999999977
583.676 0.28330000000000055
583.976 0.3332999999999977
584.275 0.3999999999999986
584.573 0.34999999999999787
584.873 0.28330000000000055
585.17 0.41659999999999897
585.47 0.36659999999999826
585.769 0.3332999999999977
586.067 0.3832999999999984
586.367 0.31659999999999755
586.666 0.18329999999999913
586.964 0.41659999999999897
587.263 0.34999999999999787
587.561 0.41659999999999897
587.86 0.28330000000000055
588.16 0.36659999999999826
588.457 0.4499999999999993
588.757 0.3000000000000007
589.054 0.3832999999999984
589.354 0.3999999999999986
589.653 0.3000000000000007
589.951 0.31659999999999755
590.25 0.4499999999999993
590.547 0.3332999999999977
590.847 0.34999999999999787
591.144 0.3832999999999984
591.444 0.3832999999999984
591.743 0.31659999999999755
592.04 0.28330000000000055
592.34 0.41659999999999897
592.637 0.3000000000000007
592.936 0.36659999999999826
593.234 0.3999999999999986
593.533 0.41659999999999897
593.832 0.3332999999999977
594.13 0.36659999999999826
594.429 0.41659999999999897
594.726 0.3000000000000007
595.026 0.36659999999999826
595.323 0.3332999999999977
595.622 0.31659999999999755
595.919 0.3999999999999986
596.219 0.34999999999999787
596.516 0.31659999999999755
596.815 0.4499999999999993
597.112 0.4499999999999993
597.411 0.3999999999999986
597.709 0.3332999999999977
598.008 0.36659999999999826
598.305 0.34999999999999787
598.604 0.3000000000000007
598.901 0.3332999999999977
599.2 0.36659999999999826
599.497 0.3332999999999977
599.797 0.36659999999999826
600.094 0.36659999999999826
600.393 0.28330000000000055
600.69 0.43329999999999913
600.989 0.28330000000000055
601.286 0.2666000000000004
601.585 0.31659999999999755
601.882 0.31659999999999755
602.181 0.3332999999999977
602.478 0.34999999999999787
602.777 0.3000000000000007
603.074 0.41659999999999897
603.373 0.5
603.67 0.34999999999999787
603.969 0.34999999999999787
604.266 0.3999999999999986
604.563 0.36659999999999826
604.862 0.3999999999999986
605.159 0.5
605.458 0.28330000000000055
605.755 0.36659999999999826
606.054 0.34999999999999787
606.351 0.41659999999999897
606.65 0.31659999999999755
606.946 0.4499999999999993
607.243 0.3832999999999984
607.542 0.3832999999999984
607.839 0.43329999999999913
608.138 0.34999999999999787
608.435 0.5333000000000006
608.732 0.36659999999999826
609.03 0.3332999999999977
609.327 0.43329999999999913
609.626 0.4665999999999997
609.923 0.5333000000000006
610.22 0.48329999999999984
610.518 0.5333000000000006
610.815 0.41659999999999897
611.114 0.5333000000000006
611.411 0.4499999999999993
611.707 0.5500000000000007
612.006 0.3832999999999984
612.303 0.3332999999999977
612.601 0.43329999999999913
612.898 0.4665999999999997
613.195 0.5
613.493 0.5333000000000006
613.79 0.48329999999999984
614.087 0.4499999999999993
614.385 0.41659999999999897
614.682 0.6499999999999986
614.979 0.5
615.277 0.43329999999999913
615.574 0.48329999999999984
615.87 0.4499999999999993
616.169 0.4665999999999997
616.466 0.4499999999999993
616.764 0.3332999999999977
617.061 0.5
617.357 0.3999999999999986
617.656 0.5166000000000004
617.952 0.3332999999999977
618.249 0.34999999999999787
618.545 0.5333000000000006
618.844 0.34999999999999787
619.14 0.34999999999999787
619.437 0.28330000000000055
619.735 0.4499999999999993
620.032 0.31659999999999755
620.328 0.48329999999999984
620.626 0.36659999999999826
620.923 0.31659999999999755
621.219 0.3832999999999984
621.518 0.3999999999999986
621.814 0.36659999999999826
622.11 0.41659999999999897
622.407 0.3832999999999984
622.705 0.36659999999999826
623.002 0.21659999999999968
623.298 0.4665999999999997
623.594 0.3999999999999986
623.893 0.3332999999999977
624.189 0.43329999999999913
624.485 0.36659999999999826
624.784 0.43329999999999913
625.08 0.3332999999999977
625.376 0.3999999999999986
625.672 0.2666000000000004
625.971 0.36659999999999826
626.267 0.31659999999999755
626.563 0.25
626.859 0.2666000000000004
627.158 0.25
627.454 0.3000000000000007
627.75 0.4499999999999993
628.046 0.3332999999999977
628.342 0.43329999999999913
628.641 0.31659999999999755
628.937 0.28330000000000055
629.233 0.41659999999999897
629.529 0.3332999999999977
629.827 0.3832999999999984
630.123 0.3999999999999986
630.419 0.3332999999999977
630.715 0.36659999999999826
631.011 0.36659999999999826
631.31 0.5665999999999976
631.606 0.41659999999999897
631.902 0.2666000000000004
632.198 0.36659999999999826
632.494 0.41659999999999897
632.792 0.3332999999999977
633.088 0.3000000000000007
633.384 0.43329999999999913
633.68 0.3000000000000007
633.976 0.34999999999999787
634.272 0.18329999999999913
634.57 0.36659999999999826
634.866 0.3332999999999977
635.162 0.3832999999999984
635.458 0.28330000000000055
635.754 0.4665999999999997
636.05 0.3999999999999986
636.347 0.36659999999999826
636.643 0.4499999999999993
636.939 0.43329999999999913
637.235 0.48329999999999984
637.531 0.31659999999999755
637.827 0.28330000000000055
638.123 0.4665999999999997
638.421 0.3332999999999977
638.716 0.43329999999999913
639.012 0.25
639.308 0.5333000000000006
639.604 0.34999999999999787
639.9 0.34999999999999787
640.195 0.4665999999999997
640.491 0.36659999999999826
640.789 0.36659999999999826
641.085 0.31659999999999755
641.381 0.36659999999999826
641.676 0.28330000000000055
641.972 0.41659999999999897
642.268 0.28330000000000055
642.563 0.28330000000000055
642.859 0.3000000000000007
643.155 0.34999999999999787
643.451 0.34999999999999787
643.746 0.43329999999999913
644.044 0.21659999999999968
644.34 0.41659999999999897
644.635 0.4665999999999997
644.931 0.25
645.227 0.5
645.522 0.34999999999999787
645.818 0.3999999999999986
646.113 0.3332999999999977
646.409 0.4499999999999993
646.704 0.31659999999999755
647.0 0.3332999999999977
647.296 0.3832999999999984
647.591 0.43329999999999913
647.887 0.3000000000000007
648.182 0.31659999999999755
648.478 0.3332999999999977
648.773 0.41659999999999897
649.069 0.36659999999999826
649.366 0.43329999999999913
649.662 0.3832999999999984
649.957 0.41659999999999897
650.253 0.36659999999999826
650.548 0.36659999999999826
650.844 0.36659999999999826
651.139 0.5166000000000004
651.434 0.3832999999999984
651.73 0.36659999999999826
652.025 0.3000000000000007
652.321 0.34999999999999787
652.616 0.43329999999999913
652.911 0.34999999999999787
653.207 0.3999999999999986
653.502 0.3832999999999984
653.797 0.3832999999999984
654.093 0.5
654.388 0.41659999999999897
654.683 0.4499999999999993
654.979 0.5999999999999979
655.274 0.43329999999999913
655.567 0.5500000000000007
655.863 0.5
656.158 0.4499999999999993
656.453 0.5999999999999979
656.748 0.4499999999999993
657.044 0.6165999999999983
657.339 0.5166000000000004
657.634 0.5999999999999979
657.929 0.5665999999999976
658.224 0.6165999999999983
658.52 0.6832999999999991
658.815 0.6499999999999986
659.11 0.6332999999999984
659.405 0.5832999999999977
659.7 0.6332999999999984
659.995 0.8832999999999984
660.291 0.6165999999999983
660.586 0.7666000000000004
660.879 0.5500000000000007
661.174 0.7666000000000004
661.469 0.6165999999999983
661.764 0.6165999999999983
662.059 0.7666000000000004
662.354 0.6832999999999991
662.649 0.6332999999999984
662.944 0.6165999999999983
663.239 0.6999999999999993
663.534 0.5500000000000007
663.83 0.5500000000000007
664.122 0.5
664.417 0.666599999999999
664.713 0.3999999999999986
665.008 0.5166000000000004
665.302 0.5
665.597 0.5333000000000006
665.892 0.5166000000000004
666.187 0.4665999999999997
666.48 0.5
666.775 0.5832999999999977
667.07 0.5500000000000007
667.365 0.5166000000000004
667.66 0.5333000000000006
667.955 0.4665999999999997
668.25 0.3000000000000007
668.542 0.3000000000000007
668.837 0.5665999999999976
669.132 0.3332999999999977
669.427 0.4499999999999993
669.722 0.3332999999999977
670.017 0.4665999999999997
670.31 0.3999999999999986
670.604 0.3999999999999986
670.899 0.3000000000000007
671.194 0.3999999999999986
671.489 0.48329999999999984
671.783 0.3000000000000007
672.076 0.3332999999999977
672.371 0.3832999999999984
672.666 0.48329999999999984
672.96 0.3832999999999984
673.255 0.3832999999999984
673.548 0.48329999999999984
673.842 0.43329999999999913
674.137 0.34999999999999787
674.432 0.36659999999999826
674.727 0.3832999999999984
675.019 0.4499999999999993
675.314 0.3999999999999986
675.608 0.41659999999999897
675.903 0.5
676.196 0.34999999999999787
676.49 0.34999999999999787
676.785 0.31659999999999755
677.079 0.36659999999999826
677.374 0.43329999999999913
677.667 0.3332999999999977
677.961 0.3999999999999986
678.256 0.2666000000000004
678.55 0.4499999999999993
678.843 0.4499999999999993
679.137 0.31659999999999755
679.432 0.34999999999999787
679.726 0.4499999999999993
680.019 0.2666000000000004
680.313 0.2666000000000004
680.608 0.34999999999999787
680.902 0.3332999999999977
681.195 0.4665999999999997
681.489 0.34999999999999787
681.784 0.43329999999999913
682.076 0.2666000000000004
682.37 0.34999999999999787
682.665 0.43329999999999913
682.959 0.48329999999999984
683.252 0.3999999999999986
683.546 0.3332999999999977
683.84 0.3999999999999986
684.133 0.2666000000000004
684.427 0.34999999999999787
684.721 0.3999999999999986
685.014 0.36659999999999826
685.308 0.3832999999999984
685.602 0.2666000000000004
685.895 0.3000000000000007
686.189 0.34999999999999787
686.483 0.3999999999999986
686.778 0.3332999999999977
687.07 0.3000000000000007
687.364 0.3332999999999977
687.658 0.34999999999999787
687.951 0.3832999999999984
688.245 0.41659999999999897
688.537 0.36659999999999826
688.831 0.36659999999999826
689.125 0.4499999999999993
689.418 0.34999999999999787
689.712 0.36659999999999826
690.006 0.3332999999999977
690.298 0.34999999999999787
690.592 0.36659999999999826
690.886 0.3332999999999977
691.178 0.34999999999999787
691.473 0.28330000000000055
691.767 0.41659999999999897
692.059 0.3832999999999984
692.353 0.3000000000000007
692.645 0.4499999999999993
692.939 0.2666000000000004
693.233 0.34999999999999787
693.525 0.3332999999999977
693.819 0.31659999999999755
694.111 0.36659999999999826
694.405 0.3332999999999977
694.699 0.3832999999999984
694.991 0.3332999999999977
695.285 0.36659999999999826
695.577 0.3999999999999986
695.871 0.3999999999999986
696.165 0.3332999999999977
696.457 0.36659999999999826
696.751 0.34999999999999787
697.043 0.34999999999999787
697.337 0.23329999999999984
697.629 0.41659999999999897
697.923 0.28330000000000055
698.217 0.36659999999999826
698.509 0.3000000000000007
698.802 0.3832999999999984
699.094 0.3832999999999984
699.388 0.28330000000000055
699.68 0.3332999999999977
699.974 0.31659999999999755
700.266 0.28330000000000055
700.56 0.36659999999999826
700.853 0.3999999999999986
701.145 0.25
701.439 0.36659999999999826
701.731 0.2666000000000004
702.025 0.31659999999999755
702.316 0.3000000000000007
702.61 0.25
702.902 0.34999999999999787
703.196 0.2666000000000004
703.487 0.41659999999999897
703.781 0.34999999999999787
704.073 0.3000000000000007
704.367 0.31659999999999755
704.658 0.36659999999999826
704.952 0.4499999999999993
705.244 0.2666000000000004
705.537 0.34999999999999787
705.829 0.3000000000000007
706.122 0.3332999999999977
706.414 0.4499999999999993
706.708 0.2666000000000004
706.999 0.3000000000000007
707.293 0.1999999999999993
