# Created: 2019-11-28 13:05:41.783276
# rshift intensity
76.1738 0.1999999999999993
76.4989 0.21669999999999945
76.824 0.25
77.1491 0.14999999999999858
77.4721 0.1333999999999982
77.7972 0.06669999999999732
78.1223 0.14999999999999858
78.4474 0.1999999999999993
78.7724 0.08339999999999748
79.0975 0.14999999999999858
79.4204 0.25
79.7454 0.09999999999999787
80.0704 0.16669999999999874
80.3954 0.14999999999999858
80.7204 0.21669999999999945
81.0454 0.11669999999999803
81.3682 0.1333999999999982
81.6931 0.06669999999999732
82.0181 0.14999999999999858
82.343 0.08339999999999748
82.6679 0.1833999999999989
82.9907 0.1999999999999993
83.3156 0.16669999999999874
83.6405 0.21669999999999945
83.9654 0.1999999999999993
84.2903 0.16669999999999874
84.613 0.14999999999999858
84.9378 0.1333999999999982
85.2626 0.1833999999999989
85.5875 0.06669999999999732
85.9101 0.14999999999999858
86.2349 0.14999999999999858
86.5597 0.11669999999999803
86.8845 0.21669999999999945
87.2093 0.08339999999999748
87.5319 0.0
87.8566 0.03340000000000032
88.1814 0.14999999999999858
88.5061 0.11669999999999803
88.8286 0.09999999999999787
89.1533 0.1333999999999982
89.478 0.11669999999999803
89.8027 0.11669999999999803
90.1252 0.16669999999999874
90.4499 0.1333999999999982
90.7745 0.14999999999999858
91.0992 0.06669999999999732
91.4216 0.1333999999999982
91.7462 0.14999999999999858
92.0708 0.08339999999999748
92.3954 0.09999999999999787
92.7179 0.1833999999999989
93.0424 0.06669999999999732
93.367 0.11669999999999803
93.6915 0.09999999999999787
94.0139 0.11669999999999803
94.3384 0.16669999999999874
94.6629 0.11669999999999803
94.9853 0.16669999999999874
95.3098 0.1833999999999989
95.6342 0.21669999999999945
95.9587 0.16669999999999874
96.281 0.14999999999999858
96.6055 0.11669999999999803
96.9299 0.09999999999999787
97.2522 0.16669999999999874
97.5766 0.09999999999999787
97.901 0.16669999999999874
98.2232 0.06669999999999732
98.5476 0.04999999999999716
98.8719 0.16669999999999874
99.1942 0.11669999999999803
99.5185 0.1333999999999982
99.8428 0.11669999999999803
100.165 0.1999999999999993
100.489 0.1333999999999982
100.814 0.1333999999999982
101.136 0.16669999999999874
101.46 0.29999999999999716
101.784 0.09999999999999787
102.106 0.16669999999999874
102.431 0.1333999999999982
102.755 0.21669999999999945
103.077 0.3166999999999973
103.401 0.16669999999999874
103.725 0.16669999999999874
104.047 0.14999999999999858
104.372 0.1333999999999982
104.696 0.1333999999999982
105.018 0.1833999999999989
105.342 0.14999999999999858
105.666 0.06669999999999732
105.988 0.1999999999999993
106.312 0.16669999999999874
106.634 0.16669999999999874
106.958 0.16669999999999874
107.282 0.08339999999999748
107.604 0.2333999999999996
107.928 0.11669999999999803
108.252 0.1333999999999982
108.574 0.1999999999999993
108.898 0.1333999999999982
109.22 0.1333999999999982
109.544 0.14999999999999858
109.868 0.16669999999999874
110.19 0.14999999999999858
110.514 0.08339999999999748
110.836 0.09999999999999787
111.159 0.09999999999999787
111.483 0.04999999999999716
111.805 0.11669999999999803
112.129 0.14999999999999858
112.451 0.11669999999999803
112.775 0.1833999999999989
113.096 0.2333999999999996
113.42 0.08339999999999748
113.744 0.1999999999999993
114.066 0.1333999999999982
114.39 0.1333999999999982
114.711 0.1333999999999982
115.035 0.1999999999999993
115.357 0.09999999999999787
115.681 0.16669999999999874
116.004 0.1333999999999982
116.326 0.1833999999999989
116.65 0.08339999999999748
116.971 0.16669999999999874
117.295 0.09999999999999787
117.617 0.09999999999999787
117.94 0.16669999999999874
118.262 0.11669999999999803
118.586 0.14999999999999858
118.907 0.21669999999999945
119.231 0.1833999999999989
119.554 0.14999999999999858
119.876 0.1999999999999993
120.199 0.1833999999999989
120.521 0.2333999999999996
120.845 0.21669999999999945
121.166 0.21669999999999945
121.49 0.11669999999999803
121.811 0.1999999999999993
122.135 0.1833999999999989
122.456 0.11669999999999803
122.78 0.1833999999999989
123.101 0.11669999999999803
123.424 0.1333999999999982
123.746 0.2333999999999996
124.069 0.09999999999999787
124.391 0.06669999999999732
124.714 0.09999999999999787
125.035 0.14999999999999858
125.359 0.2333999999999996
125.68 0.09999999999999787
126.004 0.1333999999999982
126.325 0.16669999999999874
126.648 0.1333999999999982
126.97 0.29999999999999716
127.291 0.09999999999999787
127.614 0.06669999999999732
127.935 0.21669999999999945
128.259 0.1333999999999982
128.58 0.11669999999999803
128.903 0.16669999999999874
129.224 0.1833999999999989
129.548 0.1833999999999989
129.869 0.21669999999999945
130.192 0.08339999999999748
130.513 0.11669999999999803
130.834 0.16669999999999874
131.158 0.08339999999999748
131.479 0.21669999999999945
131.802 0.21669999999999945
132.123 0.14999999999999858
132.446 0.1833999999999989
132.767 0.1833999999999989
133.09 0.16669999999999874
133.411 0.16669999999999874
133.733 0.1333999999999982
134.056 0.21669999999999945
134.377 0.1833999999999989
134.7 0.14999999999999858
135.021 0.1333999999999982
135.342 0.16669999999999874
135.665 0.1333999999999982
135.986 0.03340000000000032
136.309 0.11669999999999803
136.63 0.14999999999999858
136.951 0.16669999999999874
137.274 0.14999999999999858
137.595 0.08339999999999748
137.918 0.09999999999999787
138.238 0.1999999999999993
138.559 0.16669999999999874
138.882 0.09999999999999787
139.203 0.11669999999999803
139.526 0.21669999999999945
139.847 0.11669999999999803
140.168 0.16669999999999874
140.491 0.16669999999999874
140.811 0.14999999999999858
141.132 0.21669999999999945
141.455 0.21669999999999945
141.776 0.1999999999999993
142.097 0.2333999999999996
142.419 0.14999999999999858
142.74 0.11669999999999803
143.061 0.1833999999999989
143.384 0.25
143.704 0.11669999999999803
144.027 0.1333999999999982
144.348 0.1999999999999993
144.668 0.1333999999999982
144.991 0.1999999999999993
145.312 0.14999999999999858
145.632 0.1333999999999982
145.955 0.21669999999999945
146.276 0.08339999999999748
146.596 0.1999999999999993
146.917 0.2834000000000003
147.24 0.16669999999999874
147.56 0.11669999999999803
147.881 0.06669999999999732
148.203 0.11669999999999803
148.524 0.1333999999999982
148.844 0.21669999999999945
149.167 0.1833999999999989
149.487 0.16669999999999874
149.808 0.16303943209481986
150.131 0.1625279266868489
150.451 0.16548005704956026
150.771 0.16307803722068925
151.092 0.16472289286608088
151.414 0.16330092665671003
151.735 0.1669865601358964
152.055 0.08339999999999748
152.378 0.1833999999999989
152.698 0.14999999999999858
153.018 0.16669999999999874
153.339 0.1833999999999989
153.661 0.1333999999999982
153.982 0.14999999999999858
154.302 0.11669999999999803
154.622 0.1333999999999982
154.945 0.14999999999999858
155.265 0.21669999999999945
155.585 0.16669999999999874
155.905 0.14999999999999858
156.228 0.1333999999999982
156.548 0.1333999999999982
156.868 0.1833999999999989
157.188 0.16669999999999874
157.511 0.11669999999999803
157.831 0.1833999999999989
158.151 0.1333999999999982
158.471 0.14999999999999858
158.794 0.1999999999999993
159.114 0.14999999999999858
159.434 0.11669999999999803
159.754 0.11669999999999803
160.074 0.1833999999999989
160.396 0.1833999999999989
160.717 0.16669999999999874
161.037 0.29999999999999716
161.357 0.06669999999999732
161.679 0.21669999999999945
161.999 0.16669999999999874
162.319 0.25
162.639 0.21669999999999945
162.959 0.11669999999999803
163.281 0.25
163.601 0.14999999999999858
163.921 0.14999999999999858
164.241 0.16669999999999874
164.561 0.14999999999999858
164.881 0.21669999999999945
165.203 0.1833999999999989
165.523 0.1999999999999993
165.843 0.1833999999999989
166.163 0.11669999999999803
166.483 0.2333999999999996
166.803 0.21669999999999945
167.125 0.1333999999999982
167.445 0.1333999999999982
167.764 0.1999999999999993
168.084 0.14999999999999858
168.404 0.11669999999999803
168.724 0.1999999999999993
169.046 0.1833999999999989
169.366 0.16669999999999874
169.685 0.16669999999999874
170.005 0.09999999999999787
170.325 0.1833999999999989
170.645 0.1999999999999993
170.964 0.1999999999999993
171.286 0.11669999999999803
171.606 0.06669999999999732
171.926 0.1833999999999989
172.245 0.11669999999999803
172.565 0.21669999999999945
172.885 0.2333999999999996
173.204 0.16669999999999874
173.524 0.2333999999999996
173.846 0.1333999999999982
174.166 0.1833999999999989
174.485 0.09999999999999787
174.805 0.16669999999999874
175.124 0.16669999999999874
175.444 0.1999999999999993
175.764 0.26670000000000016
176.083 0.21669999999999945
176.403 0.14999999999999858
176.722 0.14999999999999858
177.044 0.09999999999999787
177.363 0.2333999999999996
177.683 0.09999999999999787
178.002 0.1833999999999989
178.322 0.1999999999999993
178.641 0.14999999999999858
178.961 0.21669999999999945
179.28 0.1333999999999982
179.6 0.1999999999999993
179.919 0.1833999999999989
180.239 0.09999999999999787
180.558 0.1833999999999989
180.877 0.14999999999999858
181.197 0.1999999999999993
181.516 0.34999999999999787
181.838 0.06669999999999732
182.157 0.29999999999999716
182.476 0.25
182.796 0.1999999999999993
183.115 0.16669999999999874
183.434 0.1333999999999982
183.754 0.1833999999999989
184.073 0.14999999999999858
184.392 0.09999999999999787
184.712 0.21669999999999945
185.031 0.1333999999999982
185.35 0.25
185.669 0.21669999999999945
185.989 0.1999999999999993
186.308 0.14999999999999858
186.627 0.09999999999999787
186.946 0.1999999999999993
187.265 0.16669999999999874
187.585 0.14999999999999858
187.904 0.1833999999999989
188.223 0.29999999999999716
188.542 0.11669999999999803
188.861 0.09999999999999787
189.18 0.2333999999999996
189.499 0.1833999999999989
189.818 0.09999999999999787
190.138 0.1833999999999989
190.457 0.1999999999999993
190.776 0.1833999999999989
191.095 0.11669999999999803
191.414 0.1833999999999989
191.733 0.2333999999999996
192.052 0.25
192.371 0.26670000000000016
192.69 0.14999999999999858
193.009 0.09999999999999787
193.328 0.1833999999999989
193.647 0.21669999999999945
193.966 0.2333999999999996
194.285 0.1833999999999989
194.602 0.1999999999999993
194.92 0.2834000000000003
195.239 0.16669999999999874
195.558 0.1999999999999993
195.877 0.1833999999999989
196.196 0.21669999999999945
196.515 0.21669999999999945
196.834 0.1333999999999982
197.153 0.16669999999999874
197.471 0.25
197.79 0.1999999999999993
198.109 0.21669999999999945
198.428 0.2333999999999996
198.747 0.21669999999999945
199.065 0.14999999999999858
199.382 0.2333999999999996
199.701 0.25
200.02 0.14999999999999858
200.338 0.26670000000000016
200.657 0.1333999999999982
200.976 0.3166999999999973
201.295 0.21669999999999945
201.613 0.1333999999999982
201.932 0.26670000000000016
202.251 0.1833999999999989
202.567 0.29999999999999716
202.886 0.1833999999999989
203.204 0.16669999999999874
203.523 0.09999999999999787
203.842 0.21669999999999945
204.16 0.1333999999999982
204.479 0.14999999999999858
204.797 0.1333999999999982
205.114 0.1999999999999993
205.433 0.21669999999999945
205.751 0.1833999999999989
206.07 0.1999999999999993
206.388 0.1333999999999982
206.707 0.1333999999999982
207.025 0.1833999999999989
207.342 0.16669999999999874
207.66 0.1333999999999982
207.979 0.1333999999999982
208.297 0.29999999999999716
208.615 0.16669999999999874
208.934 0.25
209.25 0.11669999999999803
209.569 0.21669999999999945
209.887 0.1333999999999982
210.205 0.1833999999999989
210.524 0.25
210.842 0.2333999999999996
211.158 0.1833999999999989
211.477 0.21669999999999945
211.795 0.08339999999999748
212.113 0.1999999999999993
212.432 0.14999999999999858
212.75 0.1999999999999993
213.066 0.16669999999999874
213.385 0.2834000000000003
213.703 0.1999999999999993
214.021 0.21669999999999945
214.339 0.1833999999999989
214.656 0.1333999999999982
214.974 0.16669999999999874
215.292 0.1833999999999989
215.61 0.1833999999999989
215.926 0.06669999999999732
216.245 0.25
216.563 0.14999999999999858
216.881 0.25
217.199 0.1833999999999989
217.515 0.26670000000000016
217.833 0.1333999999999982
218.151 0.2333999999999996
218.469 0.2834000000000003
218.785 0.14999999999999858
219.104 0.21669999999999945
219.422 0.21669999999999945
219.74 0.1333999999999982
220.056 0.2333999999999996
220.374 0.11669999999999803
220.692 0.25
221.01 0.09999999999999787
221.326 0.26670000000000016
221.644 0.25
221.962 0.14999999999999858
222.28 0.21669999999999945
222.596 0.26670000000000016
222.914 0.1999999999999993
223.232 0.25
223.547 0.2333999999999996
223.865 0.1999999999999993
224.183 0.2834000000000003
224.501 0.26670000000000016
224.817 0.29999999999999716
225.135 0.21669999999999945
225.453 0.14999999999999858
225.768 0.1999999999999993
226.086 0.1833999999999989
226.404 0.26670000000000016
226.722 0.1999999999999993
227.038 0.2333999999999996
227.355 0.1833999999999989
227.673 0.1833999999999989
227.989 0.1999999999999993
228.307 0.2333999999999996
228.625 0.21669999999999945
228.94 0.16669999999999874
229.258 0.25
229.576 0.26670000000000016
229.891 0.1833999999999989
230.209 0.25
230.527 0.1833999999999989
230.842 0.2333999999999996
231.16 0.1833999999999989
231.478 0.14999999999999858
231.793 0.26670000000000016
232.111 0.2333999999999996
232.428 0.11669999999999803
232.744 0.25
233.062 0.1999999999999993
233.379 0.1833999999999989
233.695 0.1333999999999982
234.012 0.26670000000000016
234.33 0.26670000000000016
234.645 0.1999999999999993
234.963 0.1999999999999993
235.278 0.16669999999999874
235.596 0.3333999999999975
235.913 0.2333999999999996
236.229 0.26670000000000016
236.546 0.1333999999999982
236.864 0.11669999999999803
237.179 0.29999999999999716
237.497 0.1999999999999993
237.812 0.25
238.129 0.1833999999999989
238.447 0.25
238.762 0.14999999999999858
239.08 0.2333999999999996
239.395 0.1833999999999989
239.712 0.2834000000000003
240.03 0.2333999999999996
240.345 0.2333999999999996
240.662 0.21669999999999945
240.978 0.21669999999999945
241.295 0.25
241.61 0.26670000000000016
241.927 0.25
242.245 0.2834000000000003
242.56 0.1833999999999989
242.877 0.3166999999999973
243.192 0.2333999999999996
243.51 0.26670000000000016
243.825 0.25
244.142 0.21669999999999945
244.459 0.2834000000000003
244.774 0.16669999999999874
245.092 0.2834000000000003
245.407 0.14999999999999858
245.724 0.2834000000000003
246.039 0.2333999999999996
246.356 0.21669999999999945
246.671 0.1999999999999993
246.988 0.14999999999999858
247.303 0.2834000000000003
247.62 0.25
247.938 0.1999999999999993
248.253 0.2333999999999996
248.57 0.14999999999999858
248.885 0.1833999999999989
249.202 0.04999999999999716
249.517 0.1333999999999982
249.834 0.2333999999999996
250.149 0.14999999999999858
250.466 0.21669999999999945
250.781 0.11669999999999803
251.098 0.21669999999999945
251.412 0.1999999999999993
251.729 0.26670000000000016
252.044 0.29999999999999716
252.361 0.2333999999999996
252.676 0.2333999999999996
252.993 0.26670000000000016
253.308 0.29999999999999716
253.625 0.2834000000000003
253.94 0.25
254.256 0.25
254.571 0.16669999999999874
254.888 0.1833999999999989
255.203 0.1999999999999993
255.518 0.21669999999999945
255.834 0.1833999999999989
256.149 0.3166999999999973
256.466 0.16669999999999874
256.781 0.29999999999999716
257.097 0.2834000000000003
257.412 0.2834000000000003
257.729 0.14999999999999858
258.044 0.2333999999999996
258.36 0.1833999999999989
258.675 0.2834000000000003
258.99 0.25
259.306 0.16669999999999874
259.621 0.16669999999999874
259.938 0.3333999999999975
260.252 0.2333999999999996
260.569 0.25
260.883 0.2333999999999996
261.198 0.21669999999999945
261.515 0.1999999999999993
261.829 0.16669999999999874
262.146 0.29999999999999716
262.46 0.25
262.775 0.25
263.091 0.21669999999999945
263.406 0.2333999999999996
263.723 0.1833999999999989
264.037 0.2333999999999996
264.354 0.26670000000000016
264.668 0.25
264.982 0.2834000000000003
265.299 0.29999999999999716
265.613 0.1833999999999989
265.928 0.1999999999999993
266.244 0.26670000000000016
266.559 0.2333999999999996
266.875 0.21669999999999945
267.189 0.1999999999999993
267.504 0.29999999999999716
267.82 0.1333999999999982
268.134 0.29999999999999716
268.449 0.29999999999999716
268.765 0.1833999999999989
269.079 0.2333999999999996
269.394 0.16669999999999874
269.71 0.25
270.024 0.2834000000000003
270.341 0.26670000000000016
270.655 0.3166999999999973
270.969 0.29999999999999716
271.286 0.1333999999999982
271.6 0.3333999999999975
271.914 0.1999999999999993
272.23 0.21669999999999945
272.544 0.29999999999999716
272.859 0.1333999999999982
273.175 0.2333999999999996
273.489 0.16669999999999874
273.803 0.26670000000000016
274.119 0.3333999999999975
274.433 0.2333999999999996
274.747 0.1999999999999993
275.062 0.25
275.378 0.1833999999999989
275.692 0.2333999999999996
276.006 0.25
276.322 0.1833999999999989
276.636 0.26670000000000016
276.95 0.26670000000000016
277.266 0.16669999999999874
277.58 0.2834000000000003
277.894 0.2333999999999996
278.208 0.14999999999999858
278.524 0.26670000000000016
278.838 0.1333999999999982
279.152 0.26670000000000016
279.468 0.26670000000000016
279.782 0.25
280.096 0.34999999999999787
280.41 0.2333999999999996
280.726 0.21669999999999945
281.04 0.25
281.354 0.09999999999999787
281.668 0.2834000000000003
281.983 0.25
282.297 0.2834000000000003
282.611 0.1833999999999989
282.925 0.3333999999999975
283.241 0.21669999999999945
283.555 0.1999999999999993
283.868 0.2333999999999996
284.182 0.3333999999999975
284.498 0.21669999999999945
284.812 0.3333999999999975
285.126 0.14999999999999858
285.439 0.21669999999999945
285.753 0.2333999999999996
286.069 0.2333999999999996
286.383 0.26670000000000016
286.696 0.2834000000000003
287.01 0.25
287.326 0.25
287.639 0.1333999999999982
287.953 0.3166999999999973
288.267 0.16669999999999874
288.58 0.25
288.896 0.16669999999999874
289.21 0.2333999999999996
289.523 0.1333999999999982
289.837 0.1999999999999993
290.15 0.25
290.466 0.11669999999999803
290.78 0.16669999999999874
291.093 0.21669999999999945
291.407 0.09999999999999787
291.72 0.3166999999999973
292.034 0.21669999999999945
292.349 0.34999999999999787
292.663 0.2333999999999996
292.976 0.09999999999999787
293.29 0.2834000000000003
293.603 0.1999999999999993
293.917 0.1833999999999989
294.232 0.2834000000000003
294.546 0.1999999999999993
294.859 0.3166999999999973
295.172 0.2333999999999996
295.486 0.26670000000000016
295.799 0.08339999999999748
296.113 0.1833999999999989
296.428 0.25
296.741 0.3333999999999975
297.055 0.2834000000000003
297.368 0.25
297.681 0.2834000000000003
297.995 0.3166999999999973
298.308 0.1833999999999989
298.621 0.1833999999999989
298.937 0.21669999999999945
299.25 0.14999999999999858
299.563 0.1999999999999993
299.876 0.11669999999999803
300.19 0.26670000000000016
300.503 0.14999999999999858
300.816 0.1833999999999989
301.129 0.11669999999999803
301.442 0.16669999999999874
301.756 0.2834000000000003
302.071 0.2333999999999996
302.384 0.11669999999999803
302.697 0.1833999999999989
303.01 0.2834000000000003
303.323 0.1999999999999993
303.637 0.11669999999999803
303.95 0.2333999999999996
304.263 0.3166999999999973
304.576 0.1333999999999982
304.889 0.1999999999999993
305.202 0.1833999999999989
305.515 0.1999999999999993
305.828 0.2834000000000003
306.141 0.09999999999999787
306.456 0.1999999999999993
306.769 0.26670000000000016
307.082 0.29999999999999716
307.395 0.2333999999999996
307.708 0.26670000000000016
308.021 0.25
308.334 0.2333999999999996
308.647 0.26670000000000016
308.96 0.14999999999999858
309.273 0.16669999999999874
309.586 0.2333999999999996
309.899 0.09999999999999787
310.212 0.2333999999999996
310.525 0.26670000000000016
310.838 0.26670000000000016
311.15 0.16669999999999874
311.463 0.14999999999999858
311.776 0.3333999999999975
312.089 0.14999999999999858
312.402 0.1999999999999993
312.715 0.14999999999999858
313.027 0.14999999999999858
313.34 0.2333999999999996
313.653 0.11669999999999803
313.966 0.25
314.278 0.25
314.591 0.29999999999999716
314.904 0.21669999999999945
315.217 0.25
315.529 0.21669999999999945
315.842 0.2333999999999996
316.155 0.26670000000000016
316.467 0.2333999999999996
316.78 0.21669999999999945
317.093 0.2834000000000003
317.405 0.2834000000000003
317.718 0.26670000000000016
318.031 0.1999999999999993
318.343 0.1833999999999989
318.656 0.29999999999999716
318.969 0.29999999999999716
319.281 0.2834000000000003
319.592 0.21669999999999945
319.904 0.3333999999999975
320.217 0.21669999999999945
320.529 0.34999999999999787
320.842 0.25
321.154 0.2834000000000003
321.467 0.2333999999999996
321.779 0.3166999999999973
322.092 0.3166999999999973
322.404 0.1999999999999993
322.717 0.26670000000000016
323.029 0.29999999999999716
323.342 0.14999999999999858
323.654 0.34999999999999787
323.965 0.26670000000000016
324.277 0.29999999999999716
324.589 0.16669999999999874
324.902 0.2333999999999996
325.214 0.2333999999999996
325.527 0.1999999999999993
325.839 0.26670000000000016
326.151 0.2834000000000003
326.464 0.29999999999999716
326.776 0.25
327.086 0.26670000000000016
327.399 0.41669999999999874
327.711 0.2333999999999996
328.023 0.366699999999998
328.335 0.21669999999999945
328.648 0.29999999999999716
328.96 0.3833999999999982
329.27 0.26670000000000016
329.582 0.3166999999999973
329.895 0.3833999999999982
330.207 0.4333999999999989
330.519 0.3166999999999973
330.831 0.34999999999999787
331.143 0.366699999999998
331.454 0.25
331.766 0.2834000000000003
332.078 0.4333999999999989
332.39 0.4833999999999996
332.702 0.3166999999999973
333.014 0.1833999999999989
333.326 0.41669999999999874
333.636 0.41669999999999874
333.948 0.21669999999999945
334.261 0.3333999999999975
334.573 0.3999999999999986
334.885 0.3833999999999982
335.195 0.25
335.507 0.26670000000000016
335.819 0.2834000000000003
336.131 0.29999999999999716
336.443 0.26670000000000016
336.753 0.3333999999999975
337.065 0.26670000000000016
337.377 0.2333999999999996
337.689 0.3166999999999973
338.001 0.21669999999999945
338.31 0.1999999999999993
338.622 0.3333999999999975
338.934 0.3999999999999986
339.246 0.25
339.558 0.29999999999999716
339.868 0.25
340.18 0.29999999999999716
340.492 0.25
340.804 0.2333999999999996
341.113 0.2834000000000003
341.425 0.2834000000000003
341.737 0.41669999999999874
342.049 0.29999999999999716
342.361 0.2333999999999996
342.67 0.34999999999999787
342.982 0.29999999999999716
343.294 0.3166999999999973
343.606 0.3333999999999975
343.915 0.11669999999999803
344.227 0.26670000000000016
344.539 0.21669999999999945
344.849 0.3333999999999975
345.16 0.4499999999999993
345.472 0.21669999999999945
345.784 0.29999999999999716
346.093 0.26670000000000016
346.405 0.3333999999999975
346.717 0.2834000000000003
347.028 0.1999999999999993
347.338 0.366699999999998
347.649 0.26670000000000016
347.961 0.34999999999999787
348.271 0.3166999999999973
348.582 0.2834000000000003
348.894 0.2834000000000003
349.205 0.3166999999999973
349.515 0.34999999999999787
349.826 0.3333999999999975
350.138 0.26670000000000016
350.447 0.25
350.759 0.29999999999999716
351.07 0.26670000000000016
351.38 0.26670000000000016
351.691 0.2834000000000003
352.003 0.2333999999999996
352.312 0.25
352.624 0.3833999999999982
352.935 0.1999999999999993
353.245 0.16669999999999874
353.556 0.4333999999999989
353.867 0.25
354.177 0.4499999999999993
354.488 0.21669999999999945
354.799 0.34999999999999787
355.109 0.2834000000000003
355.42 0.29999999999999716
355.732 0.2834000000000003
356.041 0.2333999999999996
356.352 0.3333999999999975
356.663 0.2333999999999996
356.973 0.16669999999999874
357.284 0.25
357.593 0.16669999999999874
357.905 0.25
358.216 0.21669999999999945
358.525 0.26670000000000016
358.836 0.29999999999999716
359.147 0.29999999999999716
359.457 0.21669999999999945
359.768 0.3999999999999986
360.077 0.25
360.388 0.26670000000000016
360.699 0.29999999999999716
361.008 0.29999999999999716
361.32 0.29999999999999716
361.629 0.3333999999999975
361.94 0.3999999999999986
362.251 0.26670000000000016
362.56 0.21669999999999945
362.871 0.34999999999999787
363.18 0.3166999999999973
363.491 0.34999999999999787
363.8 0.34999999999999787
364.111 0.366699999999998
364.422 0.3166999999999973
364.731 0.34999999999999787
365.042 0.3333999999999975
365.351 0.2333999999999996
365.662 0.4333999999999989
365.971 0.25
366.282 0.3833999999999982
366.593 0.3833999999999982
366.902 0.366699999999998
367.213 0.29999999999999716
367.522 0.26670000000000016
367.833 0.2333999999999996
368.142 0.1333999999999982
368.453 0.26670000000000016
368.762 0.366699999999998
369.073 0.1999999999999993
369.381 0.25
369.692 0.29999999999999716
370.001 0.1333999999999982
370.312 0.366699999999998
370.623 0.2333999999999996
370.932 0.34999999999999787
371.242 0.26670000000000016
371.551 0.1999999999999993
371.862 0.29999999999999716
372.171 0.34999999999999787
372.482 0.3166999999999973
372.79 0.25
373.101 0.3166999999999973
373.41 0.4499999999999993
373.721 0.3833999999999982
374.029 0.29999999999999716
374.34 0.3166999999999973
374.649 0.2333999999999996
374.959 0.26670000000000016
375.268 0.21669999999999945
375.577 0.41669999999999874
375.887 0.25
376.196 0.3166999999999973
376.506 0.3166999999999973
376.815 0.29999999999999716
377.126 0.4499999999999993
377.434 0.25
377.745 0.2333999999999996
378.053 0.34999999999999787
378.364 0.1833999999999989
378.672 0.366699999999998
378.983 0.29999999999999716
379.292 0.2333999999999996
379.6 0.1833999999999989
379.911 0.1999999999999993
380.219 0.3333999999999975
380.53 0.366699999999998
380.838 0.3833999999999982
381.148 0.2834000000000003
381.457 0.34999999999999787
381.767 0.3833999999999982
382.076 0.21669999999999945
382.384 0.1833999999999989
382.695 0.2834000000000003
383.003 0.29999999999999716
383.313 0.366699999999998
383.622 0.3166999999999973
383.93 0.3833999999999982
384.24 0.34999999999999787
384.549 0.29999999999999716
384.859 0.3333999999999975
385.167 0.34999999999999787
385.476 0.3833999999999982
385.786 0.3166999999999973
386.094 0.25
386.405 0.366699999999998
386.713 0.2834000000000003
387.021 0.3166999999999973
387.331 0.3166999999999973
387.64 0.29999999999999716
387.948 0.29999999999999716
388.258 0.16669999999999874
388.566 0.2834000000000003
388.877 0.3833999999999982
389.185 0.3333999999999975
389.493 0.4333999999999989
389.803 0.34999999999999787
390.111 0.41669999999999874
390.419 0.25
390.729 0.3166999999999973
391.038 0.3166999999999973
391.346 0.2834000000000003
391.656 0.34999999999999787
391.964 0.2834000000000003
392.272 0.41669999999999874
392.582 0.41669999999999874
392.89 0.41669999999999874
393.198 0.3999999999999986
393.508 0.2834000000000003
393.816 0.3333999999999975
394.124 0.29999999999999716
394.434 0.21669999999999945
394.742 0.3166999999999973
395.05 0.29999999999999716
395.36 0.366699999999998
395.668 0.21669999999999945
395.976 0.2834000000000003
396.286 0.3333999999999975
396.594 0.29999999999999716
396.902 0.3999999999999986
397.21 0.34999999999999787
397.52 0.3166999999999973
397.828 0.29999999999999716
398.135 0.2333999999999996
398.445 0.2834000000000003
398.753 0.2834000000000003
399.061 0.3333999999999975
399.369 0.3833999999999982
399.679 0.29999999999999716
399.987 0.3333999999999975
400.294 0.3999999999999986
400.604 0.34999999999999787
400.912 0.3333999999999975
401.22 0.1999999999999993
401.527 0.41669999999999874
401.837 0.26670000000000016
402.145 0.3166999999999973
402.453 0.3333999999999975
402.76 0.2834000000000003
403.07 0.26670000000000016
403.378 0.3333999999999975
403.686 0.3166999999999973
403.993 0.4499999999999993
404.303 0.41669999999999874
404.611 0.3999999999999986
404.918 0.3166999999999973
405.226 0.2834000000000003
405.533 0.26670000000000016
405.843 0.34999999999999787
406.151 0.3833999999999982
406.458 0.3999999999999986
406.766 0.29999999999999716
407.076 0.3333999999999975
407.383 0.29999999999999716
407.691 0.2834000000000003
407.998 0.3166999999999973
408.306 0.2333999999999996
408.615 0.2834000000000003
408.923 0.3333999999999975
409.23 0.3166999999999973
409.538 0.366699999999998
409.845 0.4833999999999996
410.153 0.3833999999999982
410.462 0.3999999999999986
410.77 0.41669999999999874
411.077 0.34999999999999787
411.384 0.3999999999999986
411.692 0.5167000000000002
412.001 0.3166999999999973
412.309 0.46669999999999945
412.616 0.46669999999999945
412.923 0.5
413.231 0.41669999999999874
413.538 0.5
413.845 0.366699999999998
414.155 0.4833999999999996
414.462 0.5167000000000002
414.769 0.5167000000000002
415.077 0.5666999999999973
415.384 0.4499999999999993
415.691 0.46669999999999945
415.999 0.6409405619864472
416.308 0.6959638149510141
416.615 0.6341594059561153
416.922 0.6991192093625891
417.23 0.6279370967205864
417.537 0.6322955723095731
417.844 0.6448891844248941
418.151 0.866699999999998
418.458 0.9333999999999989
418.768 0.6333999999999982
419.075 0.9166999999999987
419.382 0.8499999999999979
419.689 1.0999999999999979
419.996 1.0499999999999972
420.303 0.8333999999999975
420.61 1.0499999999999972
420.918 1.0666999999999973
421.225 1.0999999999999979
421.532 1.1999999999999993
421.841 1.2667000000000002
422.148 1.366699999999998
422.455 1.1999999999999993
422.762 1.3833999999999982
423.069 1.5499999999999972
423.376 1.25
423.683 1.366699999999998
423.99 1.3333999999999975
424.297 1.366699999999998
424.604 1.2834000000000003
424.911 1.1499999999999986
425.218 1.25
425.525 1.3333999999999975
425.832 1.2667000000000002
426.139 1.1333999999999982
426.446 1.1999999999999993
426.753 1.25
427.061 0.9833999999999996
427.368 0.9833999999999996
427.675 1.0334000000000003
427.982 0.9333999999999989
428.289 0.9833999999999996
428.596 0.9833999999999996
428.903 0.8833999999999982
429.209 0.7834000000000003
429.516 0.7834000000000003
429.823 1.0334000000000003
430.13 0.7667000000000002
430.437 0.8499999999999979
430.743 0.6833999999999989
431.05 0.7999999999999972
431.357 0.6999999999999993
431.664 0.7667000000000002
431.97 0.5999999999999979
432.277 0.6499999999999986
432.584 0.5499999999999972
432.891 0.6333999999999982
433.197 0.5833999999999975
433.504 0.46669999999999945
433.811 0.5499999999999972
434.117 0.5666999999999973
434.424 0.75
434.731 0.46669999999999945
435.037 0.5499999999999972
435.344 0.5833999999999975
435.65 0.5167000000000002
435.957 0.4333999999999989
436.262 0.5
436.568 0.5499999999999972
436.875 0.4499999999999993
437.181 0.4333999999999989
437.488 0.5
437.794 0.3999999999999986
438.101 0.5666999999999973
438.407 0.4333999999999989
438.714 0.4499999999999993
439.02 0.5833999999999975
439.327 0.41669999999999874
439.633 0.46669999999999945
439.94 0.5
440.246 0.4499999999999993
440.553 0.46669999999999945
440.859 0.5334000000000003
441.163 0.5167000000000002
441.47 0.46669999999999945
441.776 0.4833999999999996
442.083 0.2834000000000003
442.389 0.4333999999999989
442.695 0.4833999999999996
443.002 0.41669999999999874
443.308 0.3999999999999986
443.614 0.3999999999999986
443.921 0.41669999999999874
444.225 0.3833999999999982
444.531 0.366699999999998
444.838 0.366699999999998
445.144 0.3166999999999973
445.45 0.4833999999999996
445.757 0.34999999999999787
446.063 0.29999999999999716
446.369 0.41669999999999874
446.675 0.3999999999999986
446.979 0.46669999999999945
447.286 0.4333999999999989
447.592 0.366699999999998
447.898 0.3333999999999975
448.204 0.4499999999999993
448.51 0.46669999999999945
448.817 0.3833999999999982
449.121 0.34999999999999787
449.427 0.46669999999999945
449.733 0.5
450.039 0.3833999999999982
450.345 0.4499999999999993
450.651 0.3999999999999986
450.955 0.46669999999999945
451.261 0.41669999999999874
451.568 0.5334000000000003
451.874 0.4833999999999996
452.18 0.41669999999999874
452.486 0.3999999999999986
452.79 0.25
453.096 0.46669999999999945
453.402 0.4333999999999989
453.708 0.5499999999999972
454.014 0.5334000000000003
454.318 0.3999999999999986
454.624 0.3333999999999975
454.93 0.3833999999999982
455.236 0.4499999999999993
455.541 0.41669999999999874
455.845 0.4333999999999989
456.151 0.366699999999998
456.457 0.5167000000000002
456.763 0.4833999999999996
457.067 0.3166999999999973
457.373 0.2834000000000003
457.679 0.4499999999999993
457.985 0.3833999999999982
458.29 0.3833999999999982
458.594 0.4333999999999989
458.9 0.3833999999999982
459.206 0.4499999999999993
459.512 0.26670000000000016
459.815 0.5
460.121 0.34999999999999787
460.427 0.3333999999999975
460.733 0.5999999999999979
461.036 0.29999999999999716
461.342 0.34999999999999787
461.648 0.366699999999998
461.954 0.4333999999999989
462.257 0.3333999999999975
462.563 0.3166999999999973
462.869 0.41669999999999874
463.172 0.366699999999998
463.478 0.4333999999999989
463.784 0.3999999999999986
464.089 0.3166999999999973
464.393 0.41669999999999874
464.699 0.41669999999999874
465.004 0.3999999999999986
465.308 0.3999999999999986
465.613 0.3833999999999982
465.919 0.46669999999999945
466.225 0.3999999999999986
466.528 0.3166999999999973
466.834 0.3333999999999975
467.139 0.26670000000000016
467.443 0.3999999999999986
467.748 0.34999999999999787
468.054 0.41669999999999874
468.357 0.366699999999998
468.663 0.2834000000000003
468.968 0.3833999999999982
469.272 0.1333999999999982
469.577 0.366699999999998
469.883 0.3166999999999973
470.186 0.34999999999999787
470.492 0.4499999999999993
470.797 0.3166999999999973
471.1 0.3999999999999986
471.406 0.3999999999999986
471.711 0.4833999999999996
472.014 0.4333999999999989
472.32 0.366699999999998
472.625 0.3833999999999982
472.929 0.46669999999999945
473.234 0.34999999999999787
473.539 0.5833999999999975
473.843 0.3833999999999982
474.148 0.46669999999999945
474.451 0.5833999999999975
474.756 0.4333999999999989
475.062 0.5833999999999975
475.365 0.3999999999999986
475.67 0.41669999999999874
475.973 0.4499999999999993
476.279 0.46669999999999945
476.584 0.5334000000000003
476.887 0.5499999999999972
477.192 0.6499999999999986
477.498 0.6999999999999993
477.801 0.7166999999999994
478.106 0.7667000000000002
478.409 0.6499999999999986
478.714 0.9499999999999993
479.017 0.6833999999999989
479.322 0.9166999999999987
479.628 0.6999999999999993
479.931 0.7667000000000002
480.236 0.8166999999999973
480.539 0.7834000000000003
480.844 0.75
481.147 0.8166999999999973
481.452 0.7333999999999996
481.757 0.8166999999999973
482.06 0.8166999999999973
482.365 0.866699999999998
482.668 0.8833999999999982
482.973 0.6666999999999987
483.276 0.6666999999999987
483.581 0.6333999999999982
483.884 0.7166999999999994
484.189 0.616699999999998
484.494 0.5499999999999972
484.797 0.3999999999999986
485.102 0.5167000000000002
485.405 0.46669999999999945
485.71 0.5499999999999972
486.013 0.4333999999999989
486.318 0.366699999999998
486.621 0.4333999999999989
486.925 0.3833999999999982
487.228 0.4833999999999996
487.533 0.3999999999999986
487.836 0.4833999999999996
488.141 0.41669999999999874
488.444 0.41669999999999874
488.748 0.5
489.051 0.3833999999999982
489.356 0.4833999999999996
489.659 0.3333999999999975
489.964 0.366699999999998
490.266 0.4499999999999993
490.571 0.26670000000000016
490.874 0.366699999999998
491.179 0.34999999999999787
491.481 0.41669999999999874
491.786 0.2834000000000003
492.089 0.4833999999999996
492.393 0.3333999999999975
492.696 0.34999999999999787
493.001 0.46669999999999945
493.303 0.4499999999999993
493.606 0.3833999999999982
493.911 0.3833999999999982
494.213 0.26670000000000016
494.518 0.3833999999999982
494.821 0.3833999999999982
495.125 0.366699999999998
495.428 0.34999999999999787
495.732 0.41669999999999874
496.035 0.5
496.337 0.2834000000000003
496.642 0.366699999999998
496.945 0.3333999999999975
497.249 0.3833999999999982
497.552 0.34999999999999787
497.856 0.29999999999999716
498.159 0.29999999999999716
498.461 0.3166999999999973
498.766 0.29999999999999716
499.068 0.26670000000000016
499.372 0.25
499.675 0.41669999999999874
499.977 0.25
500.282 0.2834000000000003
500.584 0.21669999999999945
500.889 0.3333999999999975
501.191 0.4333999999999989
501.493 0.4333999999999989
501.798 0.29999999999999716
502.1 0.4333999999999989
502.402 0.3999999999999986
502.707 0.29999999999999716
503.009 0.366699999999998
503.314 0.3166999999999973
503.616 0.3999999999999986
503.918 0.2333999999999996
504.222 0.41669999999999874
504.525 0.2834000000000003
504.827 0.2834000000000003
505.131 0.3999999999999986
505.433 0.2834000000000003
505.736 0.29999999999999716
506.04 0.1999999999999993
506.342 0.3166999999999973
506.646 0.366699999999998
506.949 0.25
507.251 0.366699999999998
507.555 0.2333999999999996
507.857 0.25
508.159 0.3333999999999975
508.461 0.3999999999999986
508.766 0.366699999999998
509.068 0.21669999999999945
509.37 0.2834000000000003
509.674 0.34999999999999787
509.976 0.29999999999999716
510.278 0.3166999999999973
510.582 0.25
510.884 0.3166999999999973
511.186 0.26670000000000016
511.49 0.1999999999999993
511.792 0.2834000000000003
512.094 0.2834000000000003
512.396 0.2834000000000003
512.701 0.3999999999999986
513.003 0.25
513.305 0.3166999999999973
513.609 0.2834000000000003
513.91 0.4333999999999989
514.212 0.26670000000000016
514.514 0.16669999999999874
514.818 0.4333999999999989
515.12 0.29999999999999716
515.422 0.3999999999999986
515.724 0.3333999999999975
516.028 0.2333999999999996
516.33 0.2834000000000003
516.632 0.366699999999998
516.934 0.4333999999999989
517.237 0.25
517.539 0.4333999999999989
517.841 0.25
518.143 0.3333999999999975
518.447 0.34999999999999787
518.749 0.16669999999999874
519.05 0.3166999999999973
519.352 0.4833999999999996
519.656 0.2834000000000003
519.958 0.4333999999999989
520.26 0.2333999999999996
520.561 0.3333999999999975
520.863 0.34999999999999787
521.167 0.29999999999999716
521.468 0.3333999999999975
521.77 0.3333999999999975
522.072 0.25
522.376 0.29999999999999716
522.677 0.3833999999999982
522.979 0.46669999999999945
523.281 0.3333999999999975
523.582 0.3999999999999986
523.884 0.29999999999999716
524.187 0.3999999999999986
524.489 0.3999999999999986
524.791 0.3166999999999973
525.092 0.3833999999999982
525.394 0.3999999999999986
525.697 0.3999999999999986
525.999 0.3999999999999986
526.301 0.3833999999999982
526.602 0.5167000000000002
526.904 0.34999999999999787
527.205 0.29999999999999716
527.507 0.3166999999999973
527.81 0.3333999999999975
528.112 0.34999999999999787
528.413 0.29999999999999716
528.715 0.41669999999999874
529.016 0.25
529.318 0.3833999999999982
529.619 0.4333999999999989
529.922 0.41669999999999874
530.224 0.366699999999998
530.525 0.3166999999999973
530.827 0.26670000000000016
531.128 0.3166999999999973
531.429 0.366699999999998
531.731 0.4499999999999993
532.032 0.3166999999999973
532.336 0.3999999999999986
532.637 0.3166999999999973
532.938 0.3999999999999986
533.24 0.3833999999999982
533.541 0.366699999999998
533.842 0.3333999999999975
534.143 0.366699999999998
534.445 0.3333999999999975
534.746 0.3333999999999975
535.047 0.26670000000000016
535.351 0.41669999999999874
535.652 0.4499999999999993
535.953 0.34999999999999787
536.254 0.2834000000000003
536.555 0.29999999999999716
536.857 0.29999999999999716
537.158 0.366699999999998
537.459 0.29999999999999716
537.76 0.29999999999999716
538.061 0.3999999999999986
538.362 0.3833999999999982
538.664 0.41669999999999874
538.965 0.3333999999999975
539.266 0.3999999999999986
539.567 0.26670000000000016
539.868 0.3333999999999975
540.169 0.3833999999999982
540.472 0.34999999999999787
540.773 0.3333999999999975
541.074 0.3833999999999982
541.375 0.2834000000000003
541.677 0.26670000000000016
541.978 0.366699999999998
542.279 0.46669999999999945
542.58 0.29999999999999716
542.881 0.46669999999999945
543.182 0.366699999999998
543.483 0.3333999999999975
543.784 0.46669999999999945
544.085 0.3333999999999975
544.385 0.29999999999999716
544.686 0.29999999999999716
544.987 0.41669999999999874
545.288 0.4499999999999993
545.589 0.3333999999999975
545.89 0.4833999999999996
546.191 0.26670000000000016
546.492 0.34999999999999787
546.793 0.34999999999999787
547.094 0.3833999999999982
547.394 0.46669999999999945
547.695 0.5
547.996 0.3833999999999982
548.297 0.4499999999999993
548.596 0.5167000000000002
548.897 0.5167000000000002
549.197 0.3999999999999986
549.498 0.5
549.799 0.4833999999999996
550.1 0.41669999999999874
550.4 0.5666999999999973
550.701 0.4833999999999996
551.002 0.5167000000000002
551.303 0.4499999999999993
551.603 0.5334000000000003
551.904 0.4833999999999996
552.205 0.41669999999999874
552.505 0.5999999999999979
552.806 0.5999999999999979
553.107 0.46669999999999945
553.407 0.5666999999999973
553.706 0.5499999999999972
554.007 0.5833999999999975
554.307 0.7667000000000002
554.608 0.5334000000000003
554.909 0.5334000000000003
555.209 0.5167000000000002
555.51 0.5999999999999979
555.81 0.5999999999999979
556.111 0.6499999999999986
556.411 0.616699999999998
556.71 0.46669999999999945
557.01 0.5999999999999979
557.311 0.4333999999999989
557.612 0.46669999999999945
557.912 0.46669999999999945
558.213 0.46669999999999945
558.513 0.5334000000000003
558.813 0.41669999999999874
559.112 0.3999999999999986
559.412 0.5
559.713 0.366699999999998
560.013 0.5334000000000003
560.314 0.4333999999999989
560.614 0.46669999999999945
560.914 0.41669999999999874
561.213 0.366699999999998
561.513 0.4333999999999989
561.814 0.46669999999999945
562.114 0.29999999999999716
562.414 0.46669999999999945
562.715 0.366699999999998
563.015 0.4333999999999989
563.313 0.46669999999999945
563.614 0.34999999999999787
563.914 0.4333999999999989
564.214 0.29999999999999716
564.515 0.34999999999999787
564.813 0.26670000000000016
565.113 0.2834000000000003
565.413 0.3166999999999973
565.714 0.29999999999999716
566.014 0.4333999999999989
566.312 0.3833999999999982
566.612 0.3833999999999982
566.912 0.3833999999999982
567.213 0.366699999999998
567.513 0.5167000000000002
567.811 0.3166999999999973
568.111 0.41669999999999874
568.411 0.3333999999999975
568.712 0.2333999999999996
569.012 0.3999999999999986
569.31 0.34999999999999787
569.61 0.41669999999999874
569.91 0.3166999999999973
570.21 0.366699999999998
570.508 0.3833999999999982
570.808 0.3833999999999982
571.108 0.34999999999999787
571.408 0.3166999999999973
571.706 0.26670000000000016
572.006 0.29999999999999716
572.306 0.2834000000000003
572.607 0.29999999999999716
572.904 0.41669999999999874
573.204 0.3333999999999975
573.505 0.2834000000000003
573.805 0.3166999999999973
574.102 0.3999999999999986
574.402 0.366699999999998
574.702 0.3166999999999973
575.002 0.34999999999999787
575.3 0.366699999999998
575.6 0.5
575.9 0.29999999999999716
576.198 0.3833999999999982
576.498 0.2834000000000003
576.798 0.3833999999999982
577.098 0.41669999999999874
577.395 0.2834000000000003
577.695 0.3833999999999982
577.995 0.34999999999999787
578.293 0.2834000000000003
578.593 0.3166999999999973
578.893 0.25
579.19 0.41669999999999874
579.49 0.3166999999999973
579.79 0.3333999999999975
580.088 0.34999999999999787
580.387 0.25
580.687 0.4833999999999996
580.985 0.3333999999999975
581.285 0.34999999999999787
581.584 0.3333999999999975
581.882 0.3999999999999986
582.182 0.2834000000000003
582.482 0.366699999999998
582.779 0.2834000000000003
583.079 0.3999999999999986
583.378 0.21669999999999945
583.676 0.41669999999999874
583.976 0.21669999999999945
584.275 0.25
584.573 0.4833999999999996
584.873 0.366699999999998
585.17 0.2834000000000003
585.47 0.41669999999999874
585.769 0.41669999999999874
586.067 0.1999999999999993
586.367 0.3999999999999986
586.666 0.366699999999998
586.964 0.46669999999999945
587.263 0.3833999999999982
587.561 0.3333999999999975
587.86 0.3833999999999982
588.16 0.4833999999999996
588.457 0.25
588.757 0.3166999999999973
589.054 0.2834000000000003
589.354 0.3333999999999975
589.653 0.3833999999999982
589.951 0.34999999999999787
590.25 0.366699999999998
590.547 0.41669999999999874
590.847 0.366699999999998
591.144 0.29999999999999716
591.444 0.3999999999999986
591.743 0.366699999999998
592.04 0.3999999999999986
592.34 0.3333999999999975
592.637 0.3166999999999973
592.936 0.41669999999999874
593.234 0.3333999999999975
593.533 0.366699999999998
593.832 0.41669999999999874
594.13 0.3333999999999975
594.429 0.29999999999999716
594.726 0.34999999999999787
595.026 0.25
595.323 0.41669999999999874
595.622 0.34999999999999787
595.919 0.26670000000000016
596.219 0.34999999999999787
596.516 0.34999999999999787
596.815 0.366699999999998
597.112 0.25
597.411 0.2834000000000003
597.709 0.3166999999999973
598.008 0.366699999999998
598.305 0.3999999999999986
598.604 0.2834000000000003
598.901 0.29999999999999716
599.2 0.4499999999999993
599.497 0.3166999999999973
599.797 0.3166999999999973
600.094 0.4333999999999989
600.393 0.2333999999999996
600.69 0.3333999999999975
600.989 0.3833999999999982
601.286 0.3166999999999973
601.585 0.2333999999999996
601.882 0.25
602.181 0.4333999999999989
602.478 0.3333999999999975
602.777 0.3999999999999986
603.074 0.3833999999999982
603.373 0.4499999999999993
603.67 0.41669999999999874
603.969 0.25
604.266 0.3833999999999982
604.563 0.4333999999999989
604.862 0.3833999999999982
605.159 0.4333999999999989
605.458 0.46669999999999945
605.755 0.3166999999999973
606.054 0.41669999999999874
606.351 0.3333999999999975
606.65 0.4499999999999993
606.946 0.5
607.243 0.34999999999999787
607.542 0.4833999999999996
607.839 0.3833999999999982
608.138 0.3333999999999975
608.435 0.26670000000000016
608.732 0.5
609.03 0.4833999999999996
609.327 0.46669999999999945
609.626 0.5167000000000002
609.923 0.4499999999999993
610.22 0.5
610.518 0.34999999999999787
610.815 0.41669999999999874
611.114 0.5666999999999973
611.411 0.4499999999999993
611.707 0.4833999999999996
612.006 0.46669999999999945
612.303 0.4833999999999996
612.601 0.4333999999999989
612.898 0.3999999999999986
613.195 0.41669999999999874
613.493 0.5167000000000002
613.79 0.3999999999999986
614.087 0.3999999999999986
614.385 0.34999999999999787
614.682 0.5334000000000003
614.979 0.366699999999998
615.277 0.3999999999999986
615.574 0.5
615.87 0.46669999999999945
616.169 0.4833999999999996
616.466 0.3166999999999973
616.764 0.366699999999998
617.061 0.3999999999999986
617.357 0.3166999999999973
617.656 0.41669999999999874
617.952 0.34999999999999787
618.249 0.3999999999999986
618.545 0.4333999999999989
618.844 0.4333999999999989
619.14 0.46669999999999945
619.437 0.3166999999999973
619.735 0.3833999999999982
620.032 0.4333999999999989
620.328 0.4333999999999989
620.626 0.3166999999999973
620.923 0.34999999999999787
621.219 0.5
621.518 0.3999999999999986
621.814 0.3166999999999973
622.11 0.3833999999999982
622.407 0.29999999999999716
622.705 0.4499999999999993
623.002 0.3333999999999975
623.298 0.5
623.594 0.366699999999998
623.893 0.5167000000000002
624.189 0.41669999999999874
624.485 0.21669999999999945
624.784 0.366699999999998
625.08 0.26670000000000016
625.376 0.3833999999999982
625.672 0.3333999999999975
625.971 0.3999999999999986
626.267 0.46669999999999945
626.563 0.2834000000000003
626.859 0.34999999999999787
627.158 0.3166999999999973
627.454 0.3166999999999973
627.75 0.41669999999999874
628.046 0.4333999999999989
628.342 0.3833999999999982
628.641 0.3333999999999975
628.937 0.41669999999999874
629.233 0.366699999999998
629.529 0.34999999999999787
629.827 0.3333999999999975
630.123 0.29999999999999716
630.419 0.2834000000000003
630.715 0.2834000000000003
631.011 0.3333999999999975
631.31 0.3333999999999975
631.606 0.3999999999999986
631.902 0.3333999999999975
632.198 0.3999999999999986
632.494 0.366699999999998
632.792 0.4333999999999989
633.088 0.34999999999999787
633.384 0.3833999999999982
633.68 0.3166999999999973
633.976 0.21669999999999945
634.272 0.3333999999999975
634.57 0.3833999999999982
634.866 0.4333999999999989
635.162 0.34999999999999787
635.458 0.4333999999999989
635.754 0.3333999999999975
636.05 0.46669999999999945
636.347 0.2834000000000003
636.643 0.26670000000000016
636.939 0.3999999999999986
637.235 0.3333999999999975
637.531 0.3833999999999982
637.827 0.3999999999999986
638.123 0.4833999999999996
638.421 0.3999999999999986
638.716 0.4499999999999993
639.012 0.3333999999999975
639.308 0.29999999999999716
639.604 0.3999999999999986
639.9 0.2834000000000003
640.195 0.3999999999999986
640.491 0.2834000000000003
640.789 0.3166999999999973
641.085 0.3833999999999982
641.381 0.3166999999999973
641.676 0.41669999999999874
641.972 0.3333999999999975
642.268 0.34999999999999787
642.563 0.4833999999999996
642.859 0.29999999999999716
643.155 0.4333999999999989
643.451 0.3166999999999973
643.746 0.26670000000000016
644.044 0.3833999999999982
644.34 0.3999999999999986
644.635 0.41669999999999874
644.931 0.34999999999999787
645.227 0.3333999999999975
645.522 0.3999999999999986
645.818 0.21669999999999945
646.113 0.3999999999999986
646.409 0.34999999999999787
646.704 0.3333999999999975
647.0 0.41669999999999874
647.296 0.29999999999999716
647.591 0.34999999999999787
647.887 0.34999999999999787
648.182 0.3333999999999975
648.478 0.3333999999999975
648.773 0.34999999999999787
649.069 0.34999999999999787
649.366 0.2834000000000003
649.662 0.3999999999999986
649.957 0.3833999999999982
650.253 0.3999999999999986
650.548 0.3333999999999975
650.844 0.4333999999999989
651.139 0.3166999999999973
651.434 0.46669999999999945
651.73 0.34999999999999787
652.025 0.5
652.321 0.41669999999999874
652.616 0.3333999999999975
652.911 0.3166999999999973
653.207 0.4499999999999993
653.502 0.3833999999999982
653.797 0.41669999999999874
654.093 0.41669999999999874
654.388 0.5334000000000003
654.683 0.46669999999999945
654.979 0.4499999999999993
655.274 0.3999999999999986
655.567 0.3999999999999986
655.863 0.4499999999999993
656.158 0.5499999999999972
656.453 0.41669999999999874
656.748 0.5167000000000002
657.044 0.5666999999999973
657.339 0.5666999999999973
657.634 0.75
657.929 0.6999999999999993
658.224 0.5334000000000003
658.52 0.5833999999999975
658.815 0.5
659.11 0.616699999999998
659.405 0.6833999999999989
659.7 0.5334000000000003
659.995 0.8166999999999973
660.291 0.4333999999999989
660.586 0.5334000000000003
660.879 0.6333999999999982
661.174 0.6333999999999982
661.469 0.616699999999998
661.764 0.5499999999999972
662.059 0.6999999999999993
662.354 0.5999999999999979
662.649 0.5
662.944 0.7166999999999994
663.239 0.5
663.534 0.46669999999999945
663.83 0.616699999999998
664.122 0.5334000000000003
664.417 0.5334000000000003
664.713 0.5167000000000002
665.008 0.5
665.302 0.4499999999999993
665.597 0.41669999999999874
665.892 0.5499999999999972
666.187 0.5334000000000003
666.48 0.5666999999999973
666.775 0.3999999999999986
667.07 0.5167000000000002
667.365 0.5499999999999972
667.66 0.4499999999999993
667.955 0.4833999999999996
668.25 0.5334000000000003
668.542 0.4333999999999989
668.837 0.5499999999999972
669.132 0.3166999999999973
669.427 0.3999999999999986
669.722 0.366699999999998
670.017 0.3999999999999986
670.31 0.34999999999999787
670.604 0.2834000000000003
670.899 0.3833999999999982
671.194 0.3999999999999986
671.489 0.4833999999999996
671.783 0.3833999999999982
672.076 0.366699999999998
672.371 0.5
672.666 0.3833999999999982
672.96 0.3833999999999982
673.255 0.3333999999999975
673.548 0.3833999999999982
673.842 0.34999999999999787
674.137 0.26670000000000016
674.432 0.26670000000000016
674.727 0.4333999999999989
675.019 0.366699999999998
675.314 0.366699999999998
675.608 0.41669999999999874
675.903 0.29999999999999716
676.196 0.34999999999999787
676.49 0.4499999999999993
676.785 0.366699999999998
677.079 0.41669999999999874
677.374 0.3833999999999982
677.667 0.21669999999999945
677.961 0.3166999999999973
678.256 0.3999999999999986
678.55 0.41669999999999874
678.843 0.34999999999999787
679.137 0.34999999999999787
679.432 0.3166999999999973
679.726 0.4499999999999993
680.019 0.34999999999999787
680.313 0.366699999999998
680.608 0.41669999999999874
680.902 0.26670000000000016
681.195 0.3833999999999982
681.489 0.25
681.784 0.366699999999998
682.076 0.3999999999999986
682.37 0.366699999999998
682.665 0.34999999999999787
682.959 0.3166999999999973
683.252 0.4333999999999989
683.546 0.34999999999999787
683.84 0.3833999999999982
684.133 0.46669999999999945
684.427 0.3833999999999982
684.721 0.34999999999999787
685.014 0.3166999999999973
685.308 0.29999999999999716
685.602 0.21669999999999945
685.895 0.41669999999999874
686.189 0.29999999999999716
686.483 0.3999999999999986
686.778 0.26670000000000016
687.07 0.366699999999998
687.364 0.25
687.658 0.3166999999999973
687.951 0.3333999999999975
688.245 0.366699999999998
688.537 0.25
688.831 0.366699999999998
689.125 0.3999999999999986
689.418 0.3999999999999986
689.712 0.3166999999999973
690.006 0.34999999999999787
690.298 0.366699999999998
690.592 0.3833999999999982
690.886 0.3999999999999986
691.178 0.2834000000000003
691.473 0.3833999999999982
691.767 0.2834000000000003
692.059 0.4499999999999993
692.353 0.2834000000000003
692.645 0.46669999999999945
692.939 0.366699999999998
693.233 0.2834000000000003
693.525 0.3333999999999975
693.819 0.3333999999999975
694.111 0.4333999999999989
694.405 0.46669999999999945
694.699 0.3333999999999975
694.991 0.5167000000000002
695.285 0.29999999999999716
695.577 0.3333999999999975
695.871 0.34999999999999787
696.165 0.366699999999998
696.457 0.3999999999999986
696.751 0.29999999999999716
697.043 0.366699999999998
697.337 0.25
697.629 0.3166999999999973
697.923 0.34999999999999787
698.217 0.3333999999999975
698.509 0.3833999999999982
698.802 0.4333999999999989
699.094 0.2834000000000003
699.388 0.3333999999999975
699.68 0.34999999999999787
699.974 0.366699999999998
700.266 0.25
700.56 0.366699999999998
700.853 0.11669999999999803
701.145 0.21669999999999945
701.439 0.34999999999999787
701.731 0.2834000000000003
702.025 0.2834000000000003
702.316 0.3166999999999973
702.61 0.3166999999999973
702.902 0.25
703.196 0.3833999999999982
703.487 0.21669999999999945
703.781 0.1999999999999993
704.073 0.3333999999999975
704.367 0.2834000000000003
704.658 0.26670000000000016
704.952 0.3999999999999986
705.244 0.25
705.537 0.2834000000000003
705.829 0.26670000000000016
706.122 0.3999999999999986
706.414 0.46669999999999945
706.708 0.3166999999999973
706.999 0.34999999999999787
707.293 0.4499999999999993
