# Created: 2019-11-28 13:05:40.154814
# rshift intensity
76.1738 0.08329999999999771
76.4989 0.18329999999999913
76.824 0.08329999999999771
77.1491 0.18329999999999913
77.4721 0.21659999999999968
77.7972 0.13329999999999842
78.1223 0.16659999999999897
78.4474 0.08329999999999771
78.7724 0.13329999999999842
79.0975 0.13329999999999842
79.4204 0.14999999999999858
79.7454 0.18329999999999913
80.0704 0.08329999999999771
80.3954 0.0
80.7204 0.11659999999999826
81.0454 0.08329999999999771
81.3682 0.1999999999999993
81.6931 0.04999999999999716
82.0181 0.11659999999999826
82.343 0.13329999999999842
82.6679 0.13329999999999842
82.9907 0.13329999999999842
83.3156 0.13329999999999842
83.6405 0.13329999999999842
83.9654 0.11659999999999826
84.2903 0.11659999999999826
84.613 0.06659999999999755
84.9378 0.08329999999999771
85.2626 0.06659999999999755
85.5875 0.08329999999999771
85.9101 0.11659999999999826
86.2349 0.16659999999999897
86.5597 0.06659999999999755
86.8845 0.11659999999999826
87.2093 0.08329999999999771
87.5319 0.11659999999999826
87.8566 0.06659999999999755
88.1814 0.04999999999999716
88.5061 0.18329999999999913
88.8286 0.08329999999999771
89.1533 0.1999999999999993
89.478 0.14999999999999858
89.8027 0.06659999999999755
90.1252 0.06659999999999755
90.4499 0.08329999999999771
90.7745 0.13329999999999842
91.0992 0.16659999999999897
91.4216 0.09999999999999787
91.7462 0.11659999999999826
92.0708 0.04999999999999716
92.3954 0.18329999999999913
92.7179 0.11659999999999826
93.0424 0.16659999999999897
93.367 0.13329999999999842
93.6915 0.13329999999999842
94.0139 0.08329999999999771
94.3384 0.08329999999999771
94.6629 0.11659999999999826
94.9853 0.13329999999999842
95.3098 0.033299999999997
95.6342 0.13329999999999842
95.9587 0.033299999999997
96.281 0.04999999999999716
96.6055 0.18329999999999913
96.9299 0.06659999999999755
97.2522 0.11659999999999826
97.5766 0.18329999999999913
97.901 0.11659999999999826
98.2232 0.09999999999999787
98.5476 0.08329999999999771
98.8719 0.06659999999999755
99.1942 0.09999999999999787
99.5185 0.09999999999999787
99.8428 0.23329999999999984
100.165 0.04999999999999716
100.489 0.11659999999999826
100.814 0.06659999999999755
101.136 0.01659999999999684
101.46 0.18329999999999913
101.784 0.11659999999999826
102.106 0.16659999999999897
102.431 0.16659999999999897
102.755 0.11659999999999826
103.077 0.1999999999999993
103.401 0.1343205583203435
103.725 0.15590418725219024
104.047 0.191423386329582
104.372 0.1922234186664724
104.696 0.22987981583040096
105.018 0.18331114288456618
105.342 0.20952061321957416
105.666 0.20964229554327574
105.988 0.13329999999999842
106.312 0.06659999999999755
106.634 0.11659999999999826
106.958 0.23329999999999984
107.282 0.09999999999999787
107.604 0.09999999999999787
107.928 0.14999999999999858
108.252 0.14999999999999858
108.574 0.16659999999999897
108.898 0.13329999999999842
109.22 0.18329999999999913
109.544 0.1999999999999993
109.868 0.13329999999999842
110.19 0.08329999999999771
110.514 0.09999999999999787
110.836 0.1999999999999993
111.159 0.09999999999999787
111.483 0.09999999999999787
111.805 0.09999999999999787
112.129 0.06659999999999755
112.451 0.14999999999999858
112.775 0.13329999999999842
113.096 0.11659999999999826
113.42 0.04999999999999716
113.744 0.0
114.066 0.1999999999999993
114.39 0.11659999999999826
114.711 0.18329999999999913
115.035 0.06659999999999755
115.357 0.14999999999999858
115.681 0.09999999999999787
116.004 0.09999999999999787
116.326 0.06659999999999755
116.65 0.14999999999999858
116.971 0.09999999999999787
117.295 0.14999999999999858
117.617 0.08329999999999771
117.94 0.06659999999999755
118.262 0.08329999999999771
118.586 0.13329999999999842
118.907 0.09999999999999787
119.231 0.18329999999999913
119.554 0.13329999999999842
119.876 0.14999999999999858
120.199 0.14999999999999858
120.521 0.14999999999999858
120.845 0.11659999999999826
121.166 0.09999999999999787
121.49 0.16659999999999897
121.811 0.21659999999999968
122.135 0.16659999999999897
122.456 0.11659999999999826
122.78 0.14999999999999858
123.101 0.16659999999999897
123.424 0.04999999999999716
123.746 0.04999999999999716
124.069 0.09999999999999787
124.391 0.13329999999999842
124.714 0.14999999999999858
125.035 0.01659999999999684
125.359 0.16659999999999897
125.68 0.06659999999999755
126.004 0.09999999999999787
126.325 0.16659999999999897
126.648 0.13329999999999842
126.97 0.11659999999999826
127.291 0.08329999999999771
127.614 0.04999999999999716
127.935 0.0
128.259 0.13329999999999842
128.58 0.16659999999999897
128.903 0.06659999999999755
129.224 0.1999999999999993
129.548 0.18329999999999913
129.869 0.08329999999999771
130.192 0.18329999999999913
130.513 0.21659999999999968
130.834 0.11659999999999826
131.158 0.08329999999999771
131.479 0.13329999999999842
131.802 0.11659999999999826
132.123 0.13329999999999842
132.446 0.1999999999999993
132.767 0.11659999999999826
133.09 0.11659999999999826
133.411 0.13329999999999842
133.733 0.08329999999999771
134.056 0.1999999999999993
134.377 0.14999999999999858
134.7 0.13329999999999842
135.021 0.13329999999999842
135.342 0.16659999999999897
135.665 0.09999999999999787
135.986 0.09999999999999787
136.309 0.14999999999999858
136.63 0.04999999999999716
136.951 0.033299999999997
137.274 0.14999999999999858
137.595 0.01659999999999684
137.918 0.11659999999999826
138.238 0.14999999999999858
138.559 0.01659999999999684
138.882 0.16659999999999897
139.203 0.033299999999997
139.526 0.06659999999999755
139.847 0.14999999999999858
140.168 0.13329999999999842
140.491 0.16659999999999897
140.811 0.01659999999999684
141.132 0.11659999999999826
141.455 0.09999999999999787
141.776 0.1999999999999993
142.097 0.09999999999999787
142.419 0.08329999999999771
142.74 0.14999999999999858
143.061 0.11659999999999826
143.384 0.06659999999999755
143.704 0.18329999999999913
144.027 0.08329999999999771
144.348 0.09999999999999787
144.668 0.09999999999999787
144.991 0.21659999999999968
145.312 0.033299999999997
145.632 0.06659999999999755
145.955 0.14999999999999858
146.276 0.08329999999999771
146.596 0.13329999999999842
146.917 0.14999999999999858
147.24 0.14999999999999858
147.56 0.08329999999999771
147.881 0.08329999999999771
148.203 0.16659999999999897
148.524 0.09999999999999787
148.844 0.14999999999999858
149.167 0.06659999999999755
149.487 0.11659999999999826
149.808 0.16659999999999897
150.131 0.09999999999999787
150.451 0.11659999999999826
150.771 0.14999999999999858
151.092 0.11659999999999826
151.414 0.09999999999999787
151.735 0.09999999999999787
152.055 0.16659999999999897
152.378 0.11659999999999826
152.698 0.11659999999999826
153.018 0.08329999999999771
153.339 0.09999999999999787
153.661 0.16659999999999897
153.982 0.11659999999999826
154.302 0.09999999999999787
154.622 0.13329999999999842
154.945 0.1999999999999993
155.265 0.033299999999997
155.585 0.033299999999997
155.905 0.04999999999999716
156.228 0.23329999999999984
156.548 0.13329999999999842
156.868 0.06659999999999755
157.188 0.11659999999999826
157.511 0.08329999999999771
157.831 0.16659999999999897
158.151 0.08329999999999771
158.471 0.18329999999999913
158.794 0.11659999999999826
159.114 0.08329999999999771
159.434 0.18329999999999913
159.754 0.11659999999999826
160.074 0.18329999999999913
160.396 0.11659999999999826
160.717 0.1999999999999993
161.037 0.13329999999999842
161.357 0.08329999999999771
161.679 0.16659999999999897
161.999 0.16659999999999897
162.319 0.09999999999999787
162.639 0.1999999999999993
162.959 0.16659999999999897
163.281 0.13329999999999842
163.601 0.21659999999999968
163.921 0.1999999999999993
164.241 0.25
164.561 0.09999999999999787
164.881 0.23329999999999984
165.203 0.25
165.523 0.13329999999999842
165.843 0.18329999999999913
166.163 0.18329999999999913
166.483 0.1999999999999993
166.803 0.18329999999999913
167.125 0.13329999999999842
167.445 0.1999999999999993
167.764 0.09999999999999787
168.084 0.26659999999999684
168.404 0.21659999999999968
168.724 0.09999999999999787
169.046 0.1999999999999993
169.366 0.06659999999999755
169.685 0.14999999999999858
170.005 0.1999999999999993
170.325 0.21659999999999968
170.645 0.13329999999999842
170.964 0.08329999999999771
171.286 0.25
171.606 0.14999999999999858
171.926 0.08329999999999771
172.245 0.16659999999999897
172.565 0.11659999999999826
172.885 0.283299999999997
173.204 0.14999999999999858
173.524 0.08329999999999771
173.846 0.14999999999999858
174.166 0.18329999999999913
174.485 0.13329999999999842
174.805 0.06659999999999755
175.124 0.16659999999999897
175.444 0.09999999999999787
175.764 0.14999999999999858
176.083 0.11659999999999826
176.403 0.16659999999999897
176.722 0.21659999999999968
177.044 0.04999999999999716
177.363 0.18329999999999913
177.683 0.283299999999997
178.002 0.13329999999999842
178.322 0.04999999999999716
178.641 0.16659999999999897
178.961 0.16659999999999897
179.28 0.14999999999999858
179.6 0.13329999999999842
179.919 0.13329999999999842
180.239 0.16659999999999897
180.558 0.09999999999999787
180.877 0.18329999999999913
181.197 0.13329999999999842
181.516 0.23329999999999984
181.838 0.18329999999999913
182.157 0.1999999999999993
182.476 0.18329999999999913
182.796 0.16659999999999897
183.115 0.21659999999999968
183.434 0.13329999999999842
183.754 0.14999999999999858
184.073 0.1999999999999993
184.392 0.16659999999999897
184.712 0.13329999999999842
185.031 0.08329999999999771
185.35 0.11659999999999826
185.669 0.13329999999999842
185.989 0.13329999999999842
186.308 0.21659999999999968
186.627 0.18329999999999913
186.946 0.26659999999999684
187.265 0.08329999999999771
187.585 0.26659999999999684
187.904 0.16659999999999897
188.223 0.08329999999999771
188.542 0.25
188.861 0.06659999999999755
189.18 0.11659999999999826
189.499 0.09999999999999787
189.818 0.08329999999999771
190.138 0.21659999999999968
190.457 0.13329999999999842
190.776 0.23329999999999984
191.095 0.09999999999999787
191.414 0.16659999999999897
191.733 0.14999999999999858
192.052 0.14999999999999858
192.371 0.14999999999999858
192.69 0.1999999999999993
193.009 0.14999999999999858
193.328 0.14999999999999858
193.647 0.11659999999999826
193.966 0.11659999999999826
194.285 0.1999999999999993
194.602 0.033299999999997
194.92 0.18329999999999913
195.239 0.06659999999999755
195.558 0.23329999999999984
195.877 0.18329999999999913
196.196 0.16659999999999897
196.515 0.14999999999999858
196.834 0.1999999999999993
197.153 0.11659999999999826
197.471 0.11659999999999826
197.79 0.16659999999999897
198.109 0.283299999999997
198.428 0.09999999999999787
198.747 0.18329999999999913
199.065 0.23329999999999984
199.382 0.033299999999997
199.701 0.21659999999999968
200.02 0.1999999999999993
200.338 0.21659999999999968
200.657 0.16659999999999897
200.976 0.08329999999999771
201.295 0.11659999999999826
201.613 0.04999999999999716
201.932 0.11659999999999826
202.251 0.14999999999999858
202.567 0.13329999999999842
202.886 0.14999999999999858
203.204 0.18329999999999913
203.523 0.09999999999999787
203.842 0.09999999999999787
204.16 0.11659999999999826
204.479 0.1999999999999993
204.797 0.18329999999999913
205.114 0.25
205.433 0.1999999999999993
205.751 0.18329999999999913
206.07 0.1999999999999993
206.388 0.09999999999999787
206.707 0.18329999999999913
207.025 0.21659999999999968
207.342 0.16659999999999897
207.66 0.18329999999999913
207.979 0.14999999999999858
208.297 0.23329999999999984
208.615 0.14999999999999858
208.934 0.06659999999999755
209.25 0.23329999999999984
209.569 0.06659999999999755
209.887 0.25
210.205 0.09999999999999787
210.524 0.18329999999999913
210.842 0.11659999999999826
211.158 0.13329999999999842
211.477 0.18329999999999913
211.795 0.11659999999999826
212.113 0.06659999999999755
212.432 0.14999999999999858
212.75 0.16659999999999897
213.066 0.18329999999999913
213.385 0.18329999999999913
213.703 0.1999999999999993
214.021 0.16659999999999897
214.339 0.09999999999999787
214.656 0.16659999999999897
214.974 0.23329999999999984
215.292 0.18329999999999913
215.61 0.13329999999999842
215.926 0.09999999999999787
216.245 0.14999999999999858
216.563 0.1999999999999993
216.881 0.23329999999999984
217.199 0.08329999999999771
217.515 0.21659999999999968
217.833 0.25
218.151 0.1999999999999993
218.469 0.13329999999999842
218.785 0.21659999999999968
219.104 0.23329999999999984
219.422 0.18329999999999913
219.74 0.14999999999999858
220.056 0.1999999999999993
220.374 0.09999999999999787
220.692 0.1999999999999993
221.01 0.283299999999997
221.326 0.13329999999999842
221.644 0.26659999999999684
221.962 0.21659999999999968
222.28 0.21659999999999968
222.596 0.23329999999999984
222.914 0.1999999999999993
223.232 0.25
223.547 0.26659999999999684
223.865 0.13329999999999842
224.183 0.31659999999999755
224.501 0.09999999999999787
224.817 0.1999999999999993
225.135 0.11659999999999826
225.453 0.21659999999999968
225.768 0.25
226.086 0.21659999999999968
226.404 0.18329999999999913
226.722 0.23329999999999984
227.038 0.283299999999997
227.355 0.16659999999999897
227.673 0.18329999999999913
227.989 0.13329999999999842
228.307 0.14999999999999858
228.625 0.26659999999999684
228.94 0.29999999999999716
229.258 0.18329999999999913
229.576 0.18329999999999913
229.891 0.11659999999999826
230.209 0.21659999999999968
230.527 0.23329999999999984
230.842 0.14999999999999858
231.16 0.21659999999999968
231.478 0.1999999999999993
231.793 0.16659999999999897
232.111 0.1999999999999993
232.428 0.26659999999999684
232.744 0.16659999999999897
233.062 0.13329999999999842
233.379 0.29999999999999716
233.695 0.31659999999999755
234.012 0.1999999999999993
234.33 0.13329999999999842
234.645 0.21659999999999968
234.963 0.21659999999999968
235.278 0.26659999999999684
235.596 0.283299999999997
235.913 0.23329999999999984
236.229 0.14999999999999858
236.546 0.13329999999999842
236.864 0.14999999999999858
237.179 0.21659999999999968
237.497 0.21659999999999968
237.812 0.25
238.129 0.14999999999999858
238.447 0.18329999999999913
238.762 0.31659999999999755
239.08 0.13329999999999842
239.395 0.26659999999999684
239.712 0.25
240.03 0.11659999999999826
240.345 0.25
240.662 0.18329999999999913
240.978 0.21659999999999968
241.295 0.283299999999997
241.61 0.11659999999999826
241.927 0.25
242.245 0.23329999999999984
242.56 0.14999999999999858
242.877 0.11659999999999826
243.192 0.18329999999999913
243.51 0.26659999999999684
243.825 0.23329999999999984
244.142 0.1999999999999993
244.459 0.16659999999999897
244.774 0.21659999999999968
245.092 0.23329999999999984
245.407 0.18329999999999913
245.724 0.11659999999999826
246.039 0.23329999999999984
246.356 0.16659999999999897
246.671 0.18329999999999913
246.988 0.13329999999999842
247.303 0.18329999999999913
247.62 0.23329999999999984
247.938 0.14999999999999858
248.253 0.1999999999999993
248.57 0.21659999999999968
248.885 0.31659999999999755
249.202 0.18329999999999913
249.517 0.16659999999999897
249.834 0.21659999999999968
250.149 0.16659999999999897
250.466 0.08329999999999771
250.781 0.21659999999999968
251.098 0.14999999999999858
251.412 0.18329999999999913
251.729 0.09999999999999787
252.044 0.18329999999999913
252.361 0.14999999999999858
252.676 0.21659999999999968
252.993 0.18329999999999913
253.308 0.16659999999999897
253.625 0.1999999999999993
253.94 0.1999999999999993
254.256 0.18329999999999913
254.571 0.1999999999999993
254.888 0.1999999999999993
255.203 0.16659999999999897
255.518 0.21659999999999968
255.834 0.21659999999999968
256.149 0.29999999999999716
256.466 0.26659999999999684
256.781 0.1999999999999993
257.097 0.26659999999999684
257.412 0.11659999999999826
257.729 0.14999999999999858
258.044 0.21659999999999968
258.36 0.1999999999999993
258.675 0.23329999999999984
258.99 0.14999999999999858
259.306 0.14999999999999858
259.621 0.16659999999999897
259.938 0.18329999999999913
260.252 0.16659999999999897
260.569 0.18329999999999913
260.883 0.09999999999999787
261.198 0.25
261.515 0.16659999999999897
261.829 0.11659999999999826
262.146 0.06659999999999755
262.46 0.283299999999997
262.775 0.18329999999999913
263.091 0.23329999999999984
263.406 0.1999999999999993
263.723 0.283299999999997
264.037 0.16659999999999897
264.354 0.09999999999999787
264.668 0.283299999999997
264.982 0.16659999999999897
265.299 0.16659999999999897
265.613 0.23329999999999984
265.928 0.1999999999999993
266.244 0.16659999999999897
266.559 0.18329999999999913
266.875 0.23329999999999984
267.189 0.14999999999999858
267.504 0.1999999999999993
267.82 0.25
268.134 0.13329999999999842
268.449 0.14999999999999858
268.765 0.06659999999999755
269.079 0.04999999999999716
269.394 0.18329999999999913
269.71 0.06659999999999755
270.024 0.1999999999999993
270.341 0.1999999999999993
270.655 0.16659999999999897
270.969 0.11659999999999826
271.286 0.21659999999999968
271.6 0.21659999999999968
271.914 0.25
272.23 0.14999999999999858
272.544 0.14999999999999858
272.859 0.14999999999999858
273.175 0.04999999999999716
273.489 0.26659999999999684
273.803 0.26659999999999684
274.119 0.13329999999999842
274.433 0.18329999999999913
274.747 0.21659999999999968
275.062 0.21659999999999968
275.378 0.16659999999999897
275.692 0.283299999999997
276.006 0.04999999999999716
276.322 0.29999999999999716
276.636 0.18329999999999913
276.95 0.29999999999999716
277.266 0.25
277.58 0.14999999999999858
277.894 0.26659999999999684
278.208 0.23329999999999984
278.524 0.21659999999999968
278.838 0.21659999999999968
279.152 0.1999999999999993
279.468 0.21659999999999968
279.782 0.14999999999999858
280.096 0.23329999999999984
280.41 0.18329999999999913
280.726 0.18329999999999913
281.04 0.18329999999999913
281.354 0.283299999999997
281.668 0.25
281.983 0.1999999999999993
282.297 0.31659999999999755
282.611 0.25
282.925 0.26659999999999684
283.241 0.283299999999997
283.555 0.13329999999999842
283.868 0.18329999999999913
284.182 0.21659999999999968
284.498 0.18329999999999913
284.812 0.29999999999999716
285.126 0.18329999999999913
285.439 0.1999999999999993
285.753 0.14999999999999858
286.069 0.1999999999999993
286.383 0.1999999999999993
286.696 0.21659999999999968
287.01 0.13329999999999842
287.326 0.21659999999999968
287.639 0.23329999999999984
287.953 0.1999999999999993
288.267 0.25
288.58 0.21659999999999968
288.896 0.1999999999999993
289.21 0.31659999999999755
289.523 0.26659999999999684
289.837 0.16659999999999897
290.15 0.23329999999999984
290.466 0.25
290.78 0.23329999999999984
291.093 0.18329999999999913
291.407 0.3332999999999977
291.72 0.1999999999999993
292.034 0.25
292.349 0.14999999999999858
292.663 0.34999999999999787
292.976 0.14999999999999858
293.29 0.23329999999999984
293.603 0.16659999999999897
293.917 0.25
294.232 0.21659999999999968
294.546 0.08329999999999771
294.859 0.18329999999999913
295.172 0.18329999999999913
295.486 0.09999999999999787
295.799 0.18329999999999913
296.113 0.09999999999999787
296.428 0.18329999999999913
296.741 0.26659999999999684
297.055 0.25
297.368 0.26659999999999684
297.681 0.18329999999999913
297.995 0.21659999999999968
298.308 0.14999999999999858
298.621 0.1999999999999993
298.937 0.23329999999999984
299.25 0.29999999999999716
299.563 0.09999999999999787
299.876 0.1999999999999993
300.19 0.1999999999999993
300.503 0.13329999999999842
300.816 0.13329999999999842
301.129 0.29999999999999716
301.442 0.16659999999999897
301.756 0.09999999999999787
302.071 0.18329999999999913
302.384 0.283299999999997
302.697 0.31659999999999755
303.01 0.14999999999999858
303.323 0.283299999999997
303.637 0.21659999999999968
303.95 0.18329999999999913
304.263 0.25
304.576 0.25
304.889 0.11659999999999826
305.202 0.29999999999999716
305.515 0.18329999999999913
305.828 0.11659999999999826
306.141 0.14999999999999858
306.456 0.14999999999999858
306.769 0.26659999999999684
307.082 0.31659999999999755
307.395 0.25
307.708 0.1999999999999993
308.021 0.1999999999999993
308.334 0.09999999999999787
308.647 0.21659999999999968
308.96 0.25
309.273 0.16659999999999897
309.586 0.31659999999999755
309.899 0.16659999999999897
310.212 0.25
310.525 0.1999999999999993
310.838 0.26659999999999684
311.15 0.23329999999999984
311.463 0.16659999999999897
311.776 0.18329999999999913
312.089 0.25
312.402 0.21659999999999968
312.715 0.31659999999999755
313.027 0.1999999999999993
313.34 0.25
313.653 0.25
313.966 0.16659999999999897
314.278 0.16659999999999897
314.591 0.25
314.904 0.23329999999999984
315.217 0.18329999999999913
315.529 0.21659999999999968
315.842 0.1999999999999993
316.155 0.13329999999999842
316.467 0.16659999999999897
316.78 0.26659999999999684
317.093 0.18329999999999913
317.405 0.34999999999999787
317.718 0.25
318.031 0.18329999999999913
318.343 0.21659999999999968
318.656 0.18329999999999913
318.969 0.26659999999999684
319.281 0.26659999999999684
319.592 0.34999999999999787
319.904 0.18329999999999913
320.217 0.26659999999999684
320.529 0.26659999999999684
320.842 0.31659999999999755
321.154 0.283299999999997
321.467 0.16659999999999897
321.779 0.18329999999999913
322.092 0.34999999999999787
322.404 0.13329999999999842
322.717 0.26659999999999684
323.029 0.16659999999999897
323.342 0.23329999999999984
323.654 0.34999999999999787
323.965 0.13329999999999842
324.277 0.21659999999999968
324.589 0.11659999999999826
324.902 0.283299999999997
325.214 0.26659999999999684
325.527 0.1999999999999993
325.839 0.21659999999999968
326.151 0.3832999999999984
326.464 0.29999999999999716
326.776 0.1999999999999993
327.086 0.3332999999999977
327.399 0.23329999999999984
327.711 0.18329999999999913
328.023 0.43329999999999913
328.335 0.34999999999999787
328.648 0.283299999999997
328.96 0.16659999999999897
329.27 0.36659999999999826
329.582 0.23329999999999984
329.895 0.25
330.207 0.3999999999999986
330.519 0.36659999999999826
330.831 0.29999999999999716
331.143 0.36659999999999826
331.454 0.283299999999997
331.766 0.29999999999999716
332.078 0.34999999999999787
332.39 0.3999999999999986
332.702 0.34999999999999787
333.014 0.29999999999999716
333.326 0.283299999999997
333.636 0.29999999999999716
333.948 0.283299999999997
334.261 0.31659999999999755
334.573 0.36659999999999826
334.885 0.3832999999999984
335.195 0.283535767793861
335.507 0.2784090186127166
335.819 0.29761526993593534
336.131 0.2812401525639423
336.443 0.28639033681973913
336.753 0.2808148049372008
337.065 0.2827246489023345
337.377 0.16659999999999897
337.689 0.13329999999999842
338.001 0.29999999999999716
338.31 0.21659999999999968
338.622 0.23329999999999984
338.934 0.29999999999999716
339.246 0.283299999999997
339.558 0.25
339.868 0.36659999999999826
340.18 0.3832999999999984
340.492 0.29999999999999716
340.804 0.23329999999999984
341.113 0.3999999999999986
341.425 0.23329999999999984
341.737 0.1999999999999993
342.049 0.283299999999997
342.361 0.283299999999997
342.67 0.283299999999997
342.982 0.21659999999999968
343.294 0.14999999999999858
343.606 0.31659999999999755
343.915 0.283299999999997
344.227 0.36659999999999826
344.539 0.25
344.849 0.34999999999999787
345.16 0.26659999999999684
345.472 0.283299999999997
345.784 0.3332999999999977
346.093 0.16659999999999897
346.405 0.23329999999999984
346.717 0.29999999999999716
347.028 0.25
347.338 0.16659999999999897
347.649 0.31659999999999755
347.961 0.25
348.271 0.3332999999999977
348.582 0.31659999999999755
348.894 0.29999999999999716
349.205 0.29999999999999716
349.515 0.3332999999999977
349.826 0.31659999999999755
350.138 0.25
350.447 0.14999999999999858
350.759 0.26659999999999684
351.07 0.34999999999999787
351.38 0.21659999999999968
351.691 0.31659999999999755
352.003 0.23329999999999984
352.312 0.18329999999999913
352.624 0.3332999999999977
352.935 0.1999999999999993
353.245 0.26659999999999684
353.556 0.3332999999999977
353.867 0.23329999999999984
354.177 0.31659999999999755
354.488 0.31659999999999755
354.799 0.11659999999999826
355.109 0.283299999999997
355.42 0.26659999999999684
355.732 0.3999999999999986
356.041 0.18329999999999913
356.352 0.34999999999999787
356.663 0.283299999999997
356.973 0.26659999999999684
357.284 0.3999999999999986
357.593 0.283299999999997
357.905 0.23329999999999984
358.216 0.283299999999997
358.525 0.31659999999999755
358.836 0.25
359.147 0.21659999999999968
359.457 0.25
359.768 0.31659999999999755
360.077 0.21659999999999968
360.388 0.36659999999999826
360.699 0.25
361.008 0.29999999999999716
361.32 0.3332999999999977
361.629 0.25
361.94 0.26659999999999684
362.251 0.283299999999997
362.56 0.3832999999999984
362.871 0.1999999999999993
363.18 0.23329999999999984
363.491 0.3332999999999977
363.8 0.18329999999999913
364.111 0.29999999999999716
364.422 0.283299999999997
364.731 0.31659999999999755
365.042 0.25
365.351 0.26659999999999684
365.662 0.31659999999999755
365.971 0.4499999999999993
366.282 0.23329999999999984
366.593 0.26659999999999684
366.902 0.31659999999999755
367.213 0.36659999999999826
367.522 0.31659999999999755
367.833 0.26659999999999684
368.142 0.25
368.453 0.48329999999999984
368.762 0.283299999999997
369.073 0.31659999999999755
369.381 0.283299999999997
369.692 0.41659999999999897
370.001 0.283299999999997
370.312 0.26659999999999684
370.623 0.18329999999999913
370.932 0.31659999999999755
371.242 0.26659999999999684
371.551 0.16659999999999897
371.862 0.34999999999999787
372.171 0.31659999999999755
372.482 0.14999999999999858
372.79 0.23329999999999984
373.101 0.14999999999999858
373.41 0.31659999999999755
373.721 0.31659999999999755
374.029 0.23329999999999984
374.34 0.26659999999999684
374.649 0.43329999999999913
374.959 0.26659999999999684
375.268 0.1999999999999993
375.577 0.21659999999999968
375.887 0.26659999999999684
376.196 0.1999999999999993
376.506 0.283299999999997
376.815 0.23329999999999984
377.126 0.25
377.434 0.31659999999999755
377.745 0.25
378.053 0.34999999999999787
378.364 0.14999999999999858
378.672 0.3332999999999977
378.983 0.283299999999997
379.292 0.21659999999999968
379.6 0.34999999999999787
379.911 0.3832999999999984
380.219 0.26659999999999684
380.53 0.23329999999999984
380.838 0.29999999999999716
381.148 0.3832999999999984
381.457 0.283299999999997
381.767 0.3332999999999977
382.076 0.21659999999999968
382.384 0.21659999999999968
382.695 0.29999999999999716
383.003 0.29999999999999716
383.313 0.23329999999999984
383.622 0.23329999999999984
383.93 0.36659999999999826
384.24 0.25
384.549 0.283299999999997
384.859 0.36659999999999826
385.167 0.31659999999999755
385.476 0.283299999999997
385.786 0.29999999999999716
386.094 0.283299999999997
386.405 0.3832999999999984
386.713 0.34999999999999787
387.021 0.3332999999999977
387.331 0.41659999999999897
387.64 0.25
387.948 0.3332999999999977
388.258 0.26659999999999684
388.566 0.3332999999999977
388.877 0.1999999999999993
389.185 0.31659999999999755
389.493 0.31659999999999755
389.803 0.26659999999999684
390.111 0.283299999999997
390.419 0.13329999999999842
390.729 0.31659999999999755
391.038 0.29999999999999716
391.346 0.3332999999999977
391.656 0.31659999999999755
391.964 0.21659999999999968
392.272 0.34999999999999787
392.582 0.3832999999999984
392.89 0.1999999999999993
393.198 0.31659999999999755
393.508 0.18329999999999913
393.816 0.29999999999999716
394.124 0.34999999999999787
394.434 0.3332999999999977
394.742 0.26659999999999684
395.05 0.283299999999997
395.36 0.36659999999999826
395.668 0.18329999999999913
395.976 0.3332999999999977
396.286 0.26659999999999684
396.594 0.29999999999999716
396.902 0.3832999999999984
397.21 0.283299999999997
397.52 0.31659999999999755
397.828 0.29999999999999716
398.135 0.23329999999999984
398.445 0.3999999999999986
398.753 0.29999999999999716
399.061 0.283299999999997
399.369 0.25
399.679 0.3332999999999977
399.987 0.3332999999999977
400.294 0.283299999999997
400.604 0.31659999999999755
400.912 0.3332999999999977
401.22 0.3332999999999977
401.527 0.283299999999997
401.837 0.25
402.145 0.3999999999999986
402.453 0.21659999999999968
402.76 0.1999999999999993
403.07 0.36659999999999826
403.378 0.4499999999999993
403.686 0.3332999999999977
403.993 0.31659999999999755
404.303 0.31659999999999755
404.611 0.36659999999999826
404.918 0.36659999999999826
405.226 0.3999999999999986
405.533 0.34999999999999787
405.843 0.283299999999997
406.151 0.4499999999999993
406.458 0.283299999999997
406.766 0.36659999999999826
407.076 0.18329999999999913
407.383 0.4499999999999993
407.691 0.3999999999999986
407.998 0.3332999999999977
408.306 0.41659999999999897
408.615 0.31659999999999755
408.923 0.41659999999999897
409.23 0.36659999999999826
409.538 0.31659999999999755
409.845 0.5
410.153 0.3332999999999977
410.462 0.36659999999999826
410.77 0.5832999999999977
411.077 0.3832999999999984
411.384 0.5
411.692 0.3832999999999984
412.001 0.3332999999999977
412.309 0.48329999999999984
412.616 0.3999999999999986
412.923 0.3999999999999986
413.231 0.5665999999999976
413.538 0.4499999999999993
413.845 0.5165999999999968
414.155 0.3332999999999977
414.462 0.3332999999999977
414.769 0.5832999999999977
415.077 0.5165999999999968
415.384 0.533299999999997
415.691 0.533299999999997
415.999 0.6165999999999983
416.308 0.533299999999997
416.615 0.5999999999999979
416.922 0.5832999999999977
417.23 0.666599999999999
417.537 0.533299999999997
417.844 0.666599999999999
418.151 0.7165999999999997
418.458 0.783299999999997
418.768 0.75
419.075 0.9832999999999998
419.382 0.7665999999999968
419.689 0.783299999999997
419.996 0.8165999999999976
420.303 0.7999999999999972
420.61 0.9832999999999998
420.918 0.9499999999999993
421.225 1.0999999999999979
421.532 1.0499999999999972
421.841 1.1499999999999986
422.148 1.2165999999999997
422.455 1.033299999999997
422.762 1.0
423.069 1.1165999999999983
423.376 1.033299999999997
423.683 1.283299999999997
423.99 1.0832999999999977
424.297 1.166599999999999
424.604 1.0499999999999972
424.911 1.0832999999999977
425.218 1.0665999999999976
425.525 1.033299999999997
425.832 1.0499999999999972
426.139 1.1499999999999986
426.446 1.1165999999999983
426.753 1.3332999999999977
427.061 1.0
427.368 0.8165999999999976
427.675 0.8999999999999986
427.982 0.8165999999999976
428.289 0.8832999999999984
428.596 0.9665999999999997
428.903 0.7665999999999968
429.209 0.8165999999999976
429.516 0.7332999999999998
429.823 0.7332999999999998
430.13 0.7332999999999998
430.437 0.8332999999999977
430.743 0.8332999999999977
431.05 0.666599999999999
431.357 0.6332999999999984
431.664 0.5665999999999976
431.97 0.5665999999999976
432.277 0.5165999999999968
432.584 0.5165999999999968
432.891 0.4499999999999993
433.197 0.5999999999999979
433.504 0.43329999999999913
433.811 0.5
434.117 0.5165999999999968
434.424 0.5499999999999972
434.731 0.43329999999999913
435.037 0.6499999999999986
435.344 0.4499999999999993
435.65 0.533299999999997
435.957 0.5832999999999977
436.262 0.533299999999997
436.568 0.41659999999999897
436.875 0.43329999999999913
437.181 0.5
437.488 0.3999999999999986
437.794 0.41659999999999897
438.101 0.41659999999999897
438.407 0.4499999999999993
438.714 0.43329999999999913
439.02 0.3832999999999984
439.327 0.36659999999999826
439.633 0.48329999999999984
439.94 0.4499999999999993
440.246 0.3999999999999986
440.553 0.5
440.859 0.4499999999999993
441.163 0.3999999999999986
441.47 0.36659999999999826
441.776 0.29999999999999716
442.083 0.23329999999999984
442.389 0.4665999999999997
442.695 0.3832999999999984
443.002 0.31659999999999755
443.308 0.41659999999999897
443.614 0.3999999999999986
443.921 0.31659999999999755
444.225 0.34999999999999787
444.531 0.36659999999999826
444.838 0.34999999999999787
445.144 0.1999999999999993
445.45 0.48329999999999984
445.757 0.4665999999999997
446.063 0.41659999999999897
446.369 0.3999999999999986
446.675 0.283299999999997
446.979 0.4499999999999993
447.286 0.4499999999999993
447.592 0.48329999999999984
447.898 0.26659999999999684
448.204 0.34999999999999787
448.51 0.4665999999999997
448.817 0.3832999999999984
449.121 0.43329999999999913
449.427 0.34999999999999787
449.733 0.36659999999999826
450.039 0.4499999999999993
450.345 0.43329999999999913
450.651 0.4665999999999997
450.955 0.43329999999999913
451.261 0.4665999999999997
451.568 0.5165999999999968
451.874 0.34999999999999787
452.18 0.41659999999999897
452.486 0.5
452.79 0.48329999999999984
453.096 0.5665999999999976
453.402 0.283299999999997
453.708 0.5999999999999979
454.014 0.4665999999999997
454.318 0.41659999999999897
454.624 0.48329999999999984
454.93 0.3999999999999986
455.236 0.4499999999999993
455.541 0.48329999999999984
455.845 0.43329999999999913
456.151 0.3832999999999984
456.457 0.25
456.763 0.4665999999999997
457.067 0.3999999999999986
457.373 0.3999999999999986
457.679 0.29999999999999716
457.985 0.48329999999999984
458.29 0.3832999999999984
458.594 0.31659999999999755
458.9 0.34999999999999787
459.206 0.36659999999999826
459.512 0.31659999999999755
459.815 0.36659999999999826
460.121 0.41659999999999897
460.427 0.4665999999999997
460.733 0.4499999999999993
461.036 0.48329999999999984
461.342 0.4499999999999993
461.648 0.34999999999999787
461.954 0.3999999999999986
462.257 0.4665999999999997
462.563 0.31659999999999755
462.869 0.3999999999999986
463.172 0.3832999999999984
463.478 0.3832999999999984
463.784 0.34999999999999787
464.089 0.36659999999999826
464.393 0.36659999999999826
464.699 0.34999999999999787
465.004 0.3832999999999984
465.308 0.48329999999999984
465.613 0.283299999999997
465.919 0.3332999999999977
466.225 0.34999999999999787
466.528 0.3332999999999977
466.834 0.31659999999999755
467.139 0.5165999999999968
467.443 0.3832999999999984
467.748 0.36659999999999826
468.054 0.29999999999999716
468.357 0.34999999999999787
468.663 0.3832999999999984
468.968 0.31659999999999755
469.272 0.31659999999999755
469.577 0.283299999999997
469.883 0.36659999999999826
470.186 0.36659999999999826
470.492 0.43329999999999913
470.797 0.4499999999999993
471.1 0.48329999999999984
471.406 0.31659999999999755
471.711 0.43329999999999913
472.014 0.41659999999999897
472.32 0.31659999999999755
472.625 0.34999999999999787
472.929 0.41659999999999897
473.234 0.4499999999999993
473.539 0.3832999999999984
473.843 0.48329999999999984
474.148 0.5499999999999972
474.451 0.34999999999999787
474.756 0.533299999999997
475.062 0.34999999999999787
475.365 0.4665999999999997
475.67 0.36659999999999826
475.973 0.3332999999999977
476.279 0.533299999999997
476.584 0.5832999999999977
476.887 0.5999999999999979
477.192 0.7665999999999968
477.498 0.5999999999999979
477.801 0.8665999999999983
478.106 0.6332999999999984
478.409 0.6499999999999986
478.714 0.8332999999999977
479.017 0.6999999999999993
479.322 0.6999999999999993
479.628 0.7665999999999968
479.931 0.5999999999999979
480.236 0.8165999999999976
480.539 0.8499999999999979
480.844 0.7165999999999997
481.147 0.6999999999999993
481.452 0.6499999999999986
481.757 0.783299999999997
482.06 0.8999999999999986
482.365 0.6999999999999993
482.668 0.7665999999999968
482.973 0.7999999999999972
483.276 0.6499999999999986
483.581 0.7999999999999972
483.884 0.5832999999999977
484.189 0.5665999999999976
484.494 0.5999999999999979
484.797 0.43329999999999913
485.102 0.41659999999999897
485.405 0.3999999999999986
485.71 0.3832999999999984
486.013 0.48329999999999984
486.318 0.5
486.621 0.43329999999999913
486.925 0.4665999999999997
487.228 0.3832999999999984
487.533 0.34999999999999787
487.836 0.4499999999999993
488.141 0.3332999999999977
488.444 0.41659999999999897
488.748 0.34999999999999787
489.051 0.5
489.356 0.34999999999999787
489.659 0.36659999999999826
489.964 0.25
490.266 0.5665999999999976
490.571 0.3332999999999977
490.874 0.41659999999999897
491.179 0.4499999999999993
491.481 0.26659999999999684
491.786 0.43329999999999913
492.089 0.41659999999999897
492.393 0.36659999999999826
492.696 0.36659999999999826
493.001 0.4499999999999993
493.303 0.36659999999999826
493.606 0.3832999999999984
493.911 0.36659999999999826
494.213 0.41659999999999897
494.518 0.3832999999999984
494.821 0.36659999999999826
495.125 0.36659999999999826
495.428 0.29999999999999716
495.732 0.43329999999999913
496.035 0.36659999999999826
496.337 0.283299999999997
496.642 0.48329999999999984
496.945 0.34999999999999787
497.249 0.41659999999999897
497.552 0.31659999999999755
497.856 0.48329999999999984
498.159 0.41659999999999897
498.461 0.25
498.766 0.36659999999999826
499.068 0.283299999999997
499.372 0.31659999999999755
499.675 0.41659999999999897
499.977 0.25
500.282 0.36659999999999826
500.584 0.41659999999999897
500.889 0.283299999999997
501.191 0.283299999999997
501.493 0.34999999999999787
501.798 0.31659999999999755
502.1 0.31659999999999755
502.402 0.34999999999999787
502.707 0.43329999999999913
503.009 0.31659999999999755
503.314 0.29999999999999716
503.616 0.36659999999999826
503.918 0.283299999999997
504.222 0.34999999999999787
504.525 0.34999999999999787
504.827 0.3332999999999977
505.131 0.3332999999999977
505.433 0.283299999999997
505.736 0.25
506.04 0.41659999999999897
506.342 0.31659999999999755
506.646 0.3999999999999986
506.949 0.1999999999999993
507.251 0.34999999999999787
507.555 0.25
507.857 0.31659999999999755
508.159 0.34999999999999787
508.461 0.21659999999999968
508.766 0.3832999999999984
509.068 0.31659999999999755
509.37 0.34999999999999787
509.674 0.283299999999997
509.976 0.34999999999999787
510.278 0.283299999999997
510.582 0.26659999999999684
510.884 0.29999999999999716
511.186 0.34999999999999787
511.49 0.3832999999999984
511.792 0.31659999999999755
512.094 0.29999999999999716
512.396 0.3332999999999977
512.701 0.3832999999999984
513.003 0.31659999999999755
513.305 0.1999999999999993
513.609 0.21659999999999968
513.91 0.3832999999999984
514.212 0.34999999999999787
514.514 0.4499999999999993
514.818 0.3332999999999977
515.12 0.43329999999999913
515.422 0.283299999999997
515.724 0.26659999999999684
516.028 0.34999999999999787
516.33 0.25
516.632 0.3332999999999977
516.934 0.31659999999999755
517.237 0.3332999999999977
517.539 0.3332999999999977
517.841 0.36659999999999826
518.143 0.29999999999999716
518.447 0.34999999999999787
518.749 0.3999999999999986
519.05 0.36659999999999826
519.352 0.34999999999999787
519.656 0.3999999999999986
519.958 0.29999999999999716
520.26 0.36659999999999826
520.561 0.3332999999999977
520.863 0.31659999999999755
521.167 0.4665999999999997
521.468 0.3332999999999977
521.77 0.26659999999999684
522.072 0.34999999999999787
522.376 0.36659999999999826
522.677 0.41659999999999897
522.979 0.3832999999999984
523.281 0.283299999999997
523.582 0.23329999999999984
523.884 0.26659999999999684
524.187 0.26659999999999684
524.489 0.41659999999999897
524.791 0.283299999999997
525.092 0.36659999999999826
525.394 0.31659999999999755
525.697 0.31659999999999755
525.999 0.29999999999999716
526.301 0.29999999999999716
526.602 0.3332999999999977
526.904 0.36659999999999826
527.205 0.34999999999999787
527.507 0.3999999999999986
527.81 0.25
528.112 0.3832999999999984
528.413 0.283299999999997
528.715 0.3332999999999977
529.016 0.36659999999999826
529.318 0.34999999999999787
529.619 0.283299999999997
529.922 0.29999999999999716
530.224 0.41659999999999897
530.525 0.31659999999999755
530.827 0.3832999999999984
531.128 0.29999999999999716
531.429 0.26659999999999684
531.731 0.34999999999999787
532.032 0.3332999999999977
532.336 0.29999999999999716
532.637 0.31659999999999755
532.938 0.1999999999999993
533.24 0.43329999999999913
533.541 0.4665999999999997
533.842 0.26659999999999684
534.143 0.29999999999999716
534.445 0.3332999999999977
534.746 0.41659999999999897
535.047 0.5
535.351 0.34999999999999787
535.652 0.48329999999999984
535.953 0.31659999999999755
536.254 0.31659999999999755
536.555 0.36659999999999826
536.857 0.4665999999999997
537.158 0.31659999999999755
537.459 0.25
537.76 0.29999999999999716
538.061 0.36659999999999826
538.362 0.43329999999999913
538.664 0.26659999999999684
538.965 0.36659999999999826
539.266 0.29999999999999716
539.567 0.34999999999999787
539.868 0.21659999999999968
540.169 0.34999999999999787
540.472 0.34999999999999787
540.773 0.31659999999999755
541.074 0.25
541.375 0.3332999999999977
541.677 0.48329999999999984
541.978 0.3332999999999977
542.279 0.43329999999999913
542.58 0.31659999999999755
542.881 0.23329999999999984
543.182 0.34999999999999787
543.483 0.43329999999999913
543.784 0.29999999999999716
544.085 0.3332999999999977
544.385 0.3332999999999977
544.686 0.21659999999999968
544.987 0.3999999999999986
545.288 0.29999999999999716
545.589 0.26659999999999684
545.89 0.34999999999999787
546.191 0.4665999999999997
546.492 0.36659999999999826
546.793 0.4499999999999993
547.094 0.34999999999999787
547.394 0.41659999999999897
547.695 0.3332999999999977
547.996 0.31659999999999755
548.297 0.41659999999999897
548.596 0.36659999999999826
548.897 0.5165999999999968
549.197 0.3832999999999984
549.498 0.34999999999999787
549.799 0.48329999999999984
550.1 0.41659999999999897
550.4 0.533299999999997
550.701 0.41659999999999897
551.002 0.3832999999999984
551.303 0.48329999999999984
551.603 0.4499999999999993
551.904 0.43329999999999913
552.205 0.48329999999999984
552.505 0.41659999999999897
552.806 0.666599999999999
553.107 0.4665999999999997
553.407 0.666599999999999
553.706 0.6165999999999983
554.007 0.5
554.307 0.5999999999999979
554.608 0.4499999999999993
554.909 0.48329999999999984
555.209 0.533299999999997
555.51 0.5832999999999977
555.81 0.5165999999999968
556.111 0.5
556.411 0.5165999999999968
556.71 0.5165999999999968
557.01 0.5499999999999972
557.311 0.533299999999997
557.612 0.36659999999999826
557.912 0.5499999999999972
558.213 0.5
558.513 0.48329999999999984
558.813 0.6165999999999983
559.112 0.48329999999999984
559.412 0.48329999999999984
559.713 0.43329999999999913
560.013 0.31659999999999755
560.314 0.41659999999999897
560.614 0.5665999999999976
560.914 0.3999999999999986
561.213 0.4499999999999993
561.513 0.48329999999999984
561.814 0.3832999999999984
562.114 0.4499999999999993
562.414 0.29999999999999716
562.715 0.34999999999999787
563.015 0.48329999999999984
563.313 0.3832999999999984
563.614 0.43329999999999913
563.914 0.34999999999999787
564.214 0.36659999999999826
564.515 0.26659999999999684
564.813 0.43329999999999913
565.113 0.3999999999999986
565.413 0.3332999999999977
565.714 0.4665999999999997
566.014 0.3999999999999986
566.312 0.36659999999999826
566.612 0.283299999999997
566.912 0.36659999999999826
567.213 0.29999999999999716
567.513 0.34999999999999787
567.811 0.3332999999999977
568.111 0.3332999999999977
568.411 0.533299999999997
568.712 0.34999999999999787
569.012 0.31659999999999755
569.31 0.34999999999999787
569.61 0.48329999999999984
569.91 0.3999999999999986
570.21 0.4499999999999993
570.508 0.3332999999999977
570.808 0.3332999999999977
571.108 0.26659999999999684
571.408 0.26659999999999684
571.706 0.41659999999999897
572.006 0.41659999999999897
572.306 0.43329999999999913
572.607 0.283299999999997
572.904 0.36659999999999826
573.204 0.3332999999999977
573.505 0.29999999999999716
573.805 0.3999999999999986
574.102 0.41659999999999897
574.402 0.36659999999999826
574.702 0.3999999999999986
575.002 0.31659999999999755
575.3 0.283299999999997
575.6 0.34999999999999787
575.9 0.31659999999999755
576.198 0.3999999999999986
576.498 0.36659999999999826
576.798 0.36659999999999826
577.098 0.36659999999999826
577.395 0.41659999999999897
577.695 0.3999999999999986
577.995 0.3832999999999984
578.293 0.14999999999999858
578.593 0.3999999999999986
578.893 0.36659999999999826
579.19 0.3999999999999986
579.49 0.283299999999997
579.79 0.23329999999999984
580.088 0.3332999999999977
580.387 0.34999999999999787
580.687 0.3332999999999977
580.985 0.283299999999997
581.285 0.31659999999999755
581.584 0.41659999999999897
581.882 0.29999999999999716
582.182 0.3332999999999977
582.482 0.283299999999997
582.779 0.3832999999999984
583.079 0.31659999999999755
583.378 0.29999999999999716
583.676 0.29999999999999716
583.976 0.26659999999999684
584.275 0.3332999999999977
584.573 0.3332999999999977
584.873 0.21659999999999968
585.17 0.3332999999999977
585.47 0.3332999999999977
585.769 0.4499999999999993
586.067 0.3332999999999977
586.367 0.36659999999999826
586.666 0.43329999999999913
586.964 0.283299999999997
587.263 0.36659999999999826
587.561 0.25
587.86 0.283299999999997
588.16 0.29999999999999716
588.457 0.41659999999999897
588.757 0.4665999999999997
589.054 0.3832999999999984
589.354 0.29999999999999716
589.653 0.5
589.951 0.25
590.25 0.3999999999999986
590.547 0.283299999999997
590.847 0.36659999999999826
591.144 0.26659999999999684
591.444 0.3832999999999984
591.743 0.36659999999999826
592.04 0.283299999999997
592.34 0.283299999999997
592.637 0.41659999999999897
592.936 0.3332999999999977
593.234 0.31659999999999755
593.533 0.3332999999999977
593.832 0.31659999999999755
594.13 0.4499999999999993
594.429 0.3999999999999986
594.726 0.283299999999997
595.026 0.29999999999999716
595.323 0.3332999999999977
595.622 0.36659999999999826
595.919 0.34999999999999787
596.219 0.43329999999999913
596.516 0.3999999999999986
596.815 0.41659999999999897
597.112 0.3332999999999977
597.411 0.31659999999999755
597.709 0.3332999999999977
598.008 0.36659999999999826
598.305 0.36659999999999826
598.604 0.3332999999999977
598.901 0.3332999999999977
599.2 0.5499999999999972
599.497 0.5
599.797 0.3999999999999986
600.094 0.29999999999999716
600.393 0.41659999999999897
600.69 0.3999999999999986
600.989 0.31659999999999755
601.286 0.4499999999999993
601.585 0.36659999999999826
601.882 0.5165999999999968
602.181 0.41659999999999897
602.478 0.25
602.777 0.3332999999999977
603.074 0.41659999999999897
603.373 0.3832999999999984
603.67 0.34999999999999787
603.969 0.3332999999999977
604.266 0.5165999999999968
604.563 0.41659999999999897
604.862 0.34999999999999787
605.159 0.34999999999999787
605.458 0.4499999999999993
605.755 0.3832999999999984
606.054 0.3832999999999984
606.351 0.31659999999999755
606.65 0.29999999999999716
606.946 0.36659999999999826
607.243 0.3832999999999984
607.542 0.34999999999999787
607.839 0.43329999999999913
608.138 0.41659999999999897
608.435 0.43329999999999913
608.732 0.43329999999999913
609.03 0.3999999999999986
609.327 0.5165999999999968
609.626 0.48329999999999984
609.923 0.43329999999999913
610.22 0.43329999999999913
610.518 0.5499999999999972
610.815 0.4499999999999993
611.114 0.3832999999999984
611.411 0.5665999999999976
611.707 0.48329999999999984
612.006 0.41659999999999897
612.303 0.5499999999999972
612.601 0.3832999999999984
612.898 0.36659999999999826
613.195 0.5165999999999968
613.493 0.3832999999999984
613.79 0.5165999999999968
614.087 0.48329999999999984
614.385 0.41659999999999897
614.682 0.4665999999999997
614.979 0.5665999999999976
615.277 0.5
615.574 0.3832999999999984
615.87 0.34999999999999787
616.169 0.666599999999999
616.466 0.5165999999999968
616.764 0.36659999999999826
617.061 0.4665999999999997
617.357 0.4499999999999993
617.656 0.3832999999999984
617.952 0.36659999999999826
618.249 0.5
618.545 0.4499999999999993
618.844 0.41659999999999897
619.14 0.4665999999999997
619.437 0.25
619.735 0.41659999999999897
620.032 0.43329999999999913
620.328 0.34999999999999787
620.626 0.34999999999999787
620.923 0.29999999999999716
621.219 0.5165999999999968
621.518 0.283299999999997
621.814 0.26659999999999684
622.11 0.43329999999999913
622.407 0.31659999999999755
622.705 0.34999999999999787
623.002 0.3832999999999984
623.298 0.3332999999999977
623.594 0.31659999999999755
623.893 0.43329999999999913
624.189 0.48329999999999984
624.485 0.29999999999999716
624.784 0.36659999999999826
625.08 0.3332999999999977
625.376 0.4665999999999997
625.672 0.5
625.971 0.5
626.267 0.41659999999999897
626.563 0.29999999999999716
626.859 0.3999999999999986
627.158 0.41659999999999897
627.454 0.41659999999999897
627.75 0.3832999999999984
628.046 0.283299999999997
628.342 0.4499999999999993
628.641 0.36659999999999826
628.937 0.4665999999999997
629.233 0.3999999999999986
629.529 0.283299999999997
629.827 0.43329999999999913
630.123 0.36659999999999826
630.419 0.36659999999999826
630.715 0.36659999999999826
631.011 0.3332999999999977
631.31 0.4499999999999993
631.606 0.4665999999999997
631.902 0.3832999999999984
632.198 0.43329999999999913
632.494 0.5
632.792 0.3332999999999977
633.088 0.43329999999999913
633.384 0.34999999999999787
633.68 0.5
633.976 0.31659999999999755
634.272 0.283299999999997
634.57 0.4499999999999993
634.866 0.34999999999999787
635.162 0.48329999999999984
635.458 0.3832999999999984
635.754 0.4665999999999997
636.05 0.34999999999999787
636.347 0.283299999999997
636.643 0.3832999999999984
636.939 0.36659999999999826
637.235 0.5165999999999968
637.531 0.4499999999999993
637.827 0.3332999999999977
638.123 0.5499999999999972
638.421 0.34999999999999787
638.716 0.36659999999999826
639.012 0.25
639.308 0.25
639.604 0.34999999999999787
639.9 0.3999999999999986
640.195 0.41659999999999897
640.491 0.29999999999999716
640.789 0.26659999999999684
641.085 0.29999999999999716
641.381 0.25
641.676 0.34999999999999787
641.972 0.41659999999999897
642.268 0.3832999999999984
642.563 0.3832999999999984
642.859 0.283299999999997
643.155 0.3832999999999984
643.451 0.41659999999999897
643.746 0.36659999999999826
644.044 0.29999999999999716
644.34 0.3999999999999986
644.635 0.3832999999999984
644.931 0.26659999999999684
645.227 0.3999999999999986
645.522 0.26659999999999684
645.818 0.41659999999999897
646.113 0.34999999999999787
646.409 0.41659999999999897
646.704 0.36659999999999826
647.0 0.43329999999999913
647.296 0.31659999999999755
647.591 0.4665999999999997
647.887 0.5165999999999968
648.182 0.3332999999999977
648.478 0.3332999999999977
648.773 0.43329999999999913
649.069 0.3332999999999977
649.366 0.29999999999999716
649.662 0.283299999999997
649.957 0.34999999999999787
650.253 0.29999999999999716
650.548 0.43329999999999913
650.844 0.3332999999999977
651.139 0.5
651.434 0.3832999999999984
651.73 0.4499999999999993
652.025 0.3999999999999986
652.321 0.43329999999999913
652.616 0.31659999999999755
652.911 0.36659999999999826
653.207 0.41659999999999897
653.502 0.4665999999999997
653.797 0.5
654.093 0.43329999999999913
654.388 0.4499999999999993
654.683 0.5999999999999979
654.979 0.4499999999999993
655.274 0.5499999999999972
655.567 0.41659999999999897
655.863 0.5165999999999968
656.158 0.4499999999999993
656.453 0.5999999999999979
656.748 0.5499999999999972
657.044 0.5999999999999979
657.339 0.29999999999999716
657.634 0.533299999999997
657.929 0.5165999999999968
658.224 0.3832999999999984
658.52 0.533299999999997
658.815 0.6999999999999993
659.11 0.6332999999999984
659.405 0.75
659.7 0.75
659.995 0.7165999999999997
660.291 0.6332999999999984
660.586 0.6165999999999983
660.879 0.7332999999999998
661.174 0.7665999999999968
661.469 0.5665999999999976
661.764 0.6999999999999993
662.059 0.6499999999999986
662.354 0.666599999999999
662.649 0.5
662.944 0.5832999999999977
663.239 0.6165999999999983
663.534 0.7665999999999968
663.83 0.6165999999999983
664.122 0.5832999999999977
664.417 0.666599999999999
664.713 0.6165999999999983
665.008 0.5832999999999977
665.302 0.533299999999997
665.597 0.6832999999999991
665.892 0.43329999999999913
666.187 0.48329999999999984
666.48 0.533299999999997
666.775 0.36659999999999826
667.07 0.533299999999997
667.365 0.5
667.66 0.5999999999999979
667.955 0.4665999999999997
668.25 0.4665999999999997
668.542 0.48329999999999984
668.837 0.5165999999999968
669.132 0.48329999999999984
669.427 0.5499999999999972
669.722 0.5165999999999968
670.017 0.3999999999999986
670.31 0.4665999999999997
670.604 0.4665999999999997
670.899 0.4665999999999997
671.194 0.41659999999999897
671.489 0.48329999999999984
671.783 0.4665999999999997
672.076 0.36659999999999826
672.371 0.41659999999999897
672.666 0.41659999999999897
672.96 0.41659999999999897
673.255 0.41659999999999897
673.548 0.34999999999999787
673.842 0.36659999999999826
674.137 0.34999999999999787
674.432 0.5165999999999968
674.727 0.3832999999999984
675.019 0.283299999999997
675.314 0.3999999999999986
675.608 0.3999999999999986
675.903 0.36659999999999826
676.196 0.5165999999999968
676.49 0.3999999999999986
676.785 0.4665999999999997
677.079 0.4499999999999993
677.374 0.34999999999999787
677.667 0.3999999999999986
677.961 0.3999999999999986
678.256 0.4499999999999993
678.55 0.36659999999999826
678.843 0.3999999999999986
679.137 0.34999999999999787
679.432 0.4499999999999993
679.726 0.3999999999999986
680.019 0.43329999999999913
680.313 0.26659999999999684
680.608 0.41659999999999897
680.902 0.48329999999999984
681.195 0.4499999999999993
681.489 0.41659999999999897
681.784 0.4665999999999997
682.076 0.4665999999999997
682.37 0.4499999999999993
682.665 0.41659999999999897
682.959 0.31659999999999755
683.252 0.48329999999999984
683.546 0.283299999999997
683.84 0.48329999999999984
684.133 0.4499999999999993
684.427 0.5
684.721 0.43329999999999913
685.014 0.34999999999999787
685.308 0.3832999999999984
685.602 0.3332999999999977
685.895 0.41659999999999897
686.189 0.3999999999999986
686.483 0.5165999999999968
686.778 0.3332999999999977
687.07 0.283299999999997
687.364 0.3332999999999977
687.658 0.34999999999999787
687.951 0.31659999999999755
688.245 0.283299999999997
688.537 0.3332999999999977
688.831 0.48329999999999984
689.125 0.34999999999999787
689.418 0.34999999999999787
689.712 0.41659999999999897
690.006 0.4499999999999993
690.298 0.4665999999999997
690.592 0.5
690.886 0.283299999999997
691.178 0.533299999999997
691.473 0.21659999999999968
691.767 0.31659999999999755
692.059 0.29999999999999716
692.353 0.43329999999999913
692.645 0.36659999999999826
692.939 0.34999999999999787
693.233 0.3832999999999984
693.525 0.3832999999999984
693.819 0.5
694.111 0.41659999999999897
694.405 0.283299999999997
694.699 0.283299999999997
694.991 0.4665999999999997
695.285 0.36659999999999826
695.577 0.41659999999999897
695.871 0.34999999999999787
696.165 0.283299999999997
696.457 0.31659999999999755
696.751 0.43329999999999913
697.043 0.4665999999999997
697.337 0.34999999999999787
697.629 0.4499999999999993
697.923 0.3332999999999977
698.217 0.31659999999999755
698.509 0.4499999999999993
698.802 0.26659999999999684
699.094 0.533299999999997
699.388 0.41659999999999897
699.68 0.34999999999999787
699.974 0.3332999999999977
700.266 0.26659999999999684
700.56 0.3332999999999977
700.853 0.34999999999999787
701.145 0.31659999999999755
701.439 0.4665999999999997
701.731 0.29999999999999716
702.025 0.31659999999999755
702.316 0.3332999999999977
702.61 0.3332999999999977
702.902 0.34999999999999787
703.196 0.5665999999999976
703.487 0.3999999999999986
703.781 0.29999999999999716
704.073 0.5
704.367 0.34999999999999787
704.658 0.5
704.952 0.41659999999999897
705.244 0.3999999999999986
705.537 0.43329999999999913
705.829 0.41659999999999897
706.122 0.4499999999999993
706.414 0.3999999999999986
706.708 0.34999999999999787
706.999 0.3832999999999984
707.293 0.41659999999999897
