# Created: 2019-11-28 13:05:39.461352
# rshift intensity
76.1738 0.25
76.4989 0.21659999999999968
76.824 0.1999999999999993
77.1491 0.1999999999999993
77.4721 0.16659999999999897
77.7972 0.1999999999999993
78.1223 0.13329999999999842
78.4474 0.14999999999999858
78.7724 0.11659999999999826
79.0975 0.16659999999999897
79.4204 0.13329999999999842
79.7454 0.23329999999999984
80.0704 0.11659999999999826
80.3954 0.21659999999999968
80.7204 0.18329999999999913
81.0454 0.13329999999999842
81.3682 0.09999999999999787
81.6931 0.13329999999999842
82.0181 0.05000000000000071
82.343 0.13329999999999842
82.6679 0.16659999999999897
82.9907 0.0
83.3156 0.21659999999999968
83.6405 0.08329999999999771
83.9654 0.08329999999999771
84.2903 0.14999999999999858
84.613 0.14999999999999858
84.9378 0.06659999999999755
85.2626 0.14999999999999858
85.5875 0.21659999999999968
85.9101 0.14999999999999858
86.2349 0.21659999999999968
86.5597 0.11659999999999826
86.8845 0.11659999999999826
87.2093 0.06659999999999755
87.5319 0.11659999999999826
87.8566 0.18329999999999913
88.1814 0.09999999999999787
88.5061 0.21659999999999968
88.8286 0.14999999999999858
89.1533 0.1999999999999993
89.478 0.13329999999999842
89.8027 0.09999999999999787
90.1252 0.13329999999999842
90.4499 0.16659999999999897
90.7745 0.16659999999999897
91.0992 0.18329999999999913
91.4216 0.09999999999999787
91.7462 0.13329999999999842
92.0708 0.16659999999999897
92.3954 0.08329999999999771
92.7179 0.16659999999999897
93.0424 0.18329999999999913
93.367 0.14999999999999858
93.6915 0.18329999999999913
94.0139 0.11659999999999826
94.3384 0.09999999999999787
94.6629 0.11659999999999826
94.9853 0.13329999999999842
95.3098 0.13329999999999842
95.6342 0.06659999999999755
95.9587 0.14999999999999858
96.281 0.14999999999999858
96.6055 0.09999999999999787
96.9299 0.16659999999999897
97.2522 0.11659999999999826
97.5766 0.11659999999999826
97.901 0.13329999999999842
98.2232 0.11659999999999826
98.5476 0.13329999999999842
98.8719 0.25
99.1942 0.11659999999999826
99.5185 0.18329999999999913
99.8428 0.14999999999999858
100.165 0.21659999999999968
100.489 0.08329999999999771
100.814 0.06659999999999755
101.136 0.16659999999999897
101.46 0.06659999999999755
101.784 0.16659999999999897
102.106 0.13329999999999842
102.431 0.21659999999999968
102.755 0.1999999999999993
103.077 0.13329999999999842
103.401 0.11659999999999826
103.725 0.18329999999999913
104.047 0.16659999999999897
104.372 0.08329999999999771
104.696 0.13329999999999842
105.018 0.13329999999999842
105.342 0.18329999999999913
105.666 0.16659999999999897
105.988 0.11659999999999826
106.312 0.03330000000000055
106.634 0.13329999999999842
106.958 0.11659999999999826
107.282 0.18329999999999913
107.604 0.14999999999999858
107.928 0.13329999999999842
108.252 0.21659999999999968
108.574 0.16659999999999897
108.898 0.11659999999999826
109.22 0.16659999999999897
109.544 0.09999999999999787
109.868 0.14999999999999858
110.19 0.21659999999999968
110.514 0.18329999999999913
110.836 0.18329999999999913
111.159 0.08329999999999771
111.483 0.14999999999999858
111.805 0.16659999999999897
112.129 0.1999999999999993
112.451 0.11659999999999826
112.775 0.18329999999999913
113.096 0.14999999999999858
113.42 0.18329999999999913
113.744 0.16659999999999897
114.066 0.14999999999999858
114.39 0.2666000000000004
114.711 0.08329999999999771
115.035 0.09999999999999787
115.357 0.14999999999999858
115.681 0.05000000000000071
116.004 0.16659999999999897
116.326 0.28330000000000055
116.65 0.13329999999999842
116.971 0.1999999999999993
117.295 0.16659999999999897
117.617 0.13329999999999842
117.94 0.25
118.262 0.08329999999999771
118.586 0.13329999999999842
118.907 0.08329999999999771
119.231 0.21659999999999968
119.554 0.16659999999999897
119.876 0.13329999999999842
120.199 0.23329999999999984
120.521 0.1999999999999993
120.845 0.16659999999999897
121.166 0.14999999999999858
121.49 0.16659999999999897
121.811 0.16659999999999897
122.135 0.16659999999999897
122.456 0.14999999999999858
122.78 0.18329999999999913
123.101 0.06659999999999755
123.424 0.25
123.746 0.14999999999999858
124.069 0.13329999999999842
124.391 0.09999999999999787
124.714 0.14999999999999858
125.035 0.21659999999999968
125.359 0.09999999999999787
125.68 0.08329999999999771
126.004 0.11659999999999826
126.325 0.13329999999999842
126.648 0.25
126.97 0.14999999999999858
127.291 0.25
127.614 0.13329999999999842
127.935 0.13329999999999842
128.259 0.13329999999999842
128.58 0.13329999999999842
128.903 0.1999999999999993
129.224 0.1999999999999993
129.548 0.1999999999999993
129.869 0.25
130.192 0.11659999999999826
130.513 0.28330000000000055
130.834 0.23329999999999984
131.158 0.16659999999999897
131.479 0.21659999999999968
131.802 0.11659999999999826
132.123 0.1999999999999993
132.446 0.16659999999999897
132.767 0.1999999999999993
133.09 0.18329999999999913
133.411 0.16659999999999897
133.733 0.18329999999999913
134.056 0.18329999999999913
134.377 0.21659999999999968
134.7 0.21659999999999968
135.021 0.13329999999999842
135.342 0.14999999999999858
135.665 0.14999999999999858
135.986 0.09999999999999787
136.309 0.13329999999999842
136.63 0.16659999999999897
136.951 0.16659999999999897
137.274 0.18329999999999913
137.595 0.14999999999999858
137.918 0.16659999999999897
138.238 0.2666000000000004
138.559 0.21659999999999968
138.882 0.08329999999999771
139.203 0.23329999999999984
139.526 0.23329999999999984
139.847 0.2043453338212693
140.168 0.2028907886282525
140.491 0.205131782652483
140.811 0.20890356421863387
141.132 0.208115232645536
141.455 0.2121591674816088
141.776 0.20838448757835693
142.097 0.21659999999999968
142.419 0.25
142.74 0.23329999999999984
143.061 0.09999999999999787
143.384 0.14999999999999858
143.704 0.13329999999999842
144.027 0.09999999999999787
144.348 0.16659999999999897
144.668 0.18329999999999913
144.991 0.14999999999999858
145.312 0.14999999999999858
145.632 0.13329999999999842
145.955 0.16659999999999897
146.276 0.23329999999999984
146.596 0.13329999999999842
146.917 0.16659999999999897
147.24 0.1999999999999993
147.56 0.14999999999999858
147.881 0.14999999999999858
148.203 0.14999999999999858
148.524 0.16659999999999897
148.844 0.14999999999999858
149.167 0.08329999999999771
149.487 0.13329999999999842
149.808 0.21659999999999968
150.131 0.13329999999999842
150.451 0.2666000000000004
150.771 0.16659999999999897
151.092 0.11659999999999826
151.414 0.18329999999999913
151.735 0.13329999999999842
152.055 0.11659999999999826
152.378 0.11659999999999826
152.698 0.2666000000000004
153.018 0.18329999999999913
153.339 0.16659999999999897
153.661 0.16659999999999897
153.982 0.14999999999999858
154.302 0.1999999999999993
154.622 0.13329999999999842
154.945 0.11659999999999826
155.265 0.13329999999999842
155.585 0.13329999999999842
155.905 0.21659999999999968
156.228 0.25
156.548 0.13329999999999842
156.868 0.18329999999999913
157.188 0.14999999999999858
157.511 0.14999999999999858
157.831 0.25
158.151 0.1999999999999993
158.471 0.3000000000000007
158.794 0.23329999999999984
159.114 0.21659999999999968
159.434 0.06659999999999755
159.754 0.16659999999999897
160.074 0.16659999999999897
160.396 0.21659999999999968
160.717 0.16659999999999897
161.037 0.16659999999999897
161.357 0.18329999999999913
161.679 0.2666000000000004
161.999 0.11659999999999826
162.319 0.08329999999999771
162.639 0.14999999999999858
162.959 0.14999999999999858
163.281 0.23329999999999984
163.601 0.18329999999999913
163.921 0.25
164.241 0.08329999999999771
164.561 0.14999999999999858
164.881 0.16659999999999897
165.203 0.16659999999999897
165.523 0.1999999999999993
165.843 0.14999999999999858
166.163 0.13329999999999842
166.483 0.1999999999999993
166.803 0.2666000000000004
167.125 0.21659999999999968
167.445 0.23329999999999984
167.764 0.3000000000000007
168.084 0.23329999999999984
168.404 0.14999999999999858
168.724 0.18329999999999913
169.046 0.16659999999999897
169.366 0.16659999999999897
169.685 0.14999999999999858
170.005 0.16659999999999897
170.325 0.14999999999999858
170.645 0.23329999999999984
170.964 0.2666000000000004
171.286 0.13329999999999842
171.606 0.09999999999999787
171.926 0.09999999999999787
172.245 0.23329999999999984
172.565 0.09999999999999787
172.885 0.2666000000000004
173.204 0.18329999999999913
173.524 0.25
173.846 0.21659999999999968
174.166 0.23329999999999984
174.485 0.1999999999999993
174.805 0.1999999999999993
175.124 0.2666000000000004
175.444 0.11659999999999826
175.764 0.18329999999999913
176.083 0.09999999999999787
176.403 0.21659999999999968
176.722 0.25
177.044 0.13329999999999842
177.363 0.2666000000000004
177.683 0.09999999999999787
178.002 0.09999999999999787
178.322 0.2666000000000004
178.641 0.1999999999999993
178.961 0.2666000000000004
179.28 0.23329999999999984
179.6 0.25
179.919 0.25
180.239 0.016600000000000392
180.558 0.14999999999999858
180.877 0.16659999999999897
181.197 0.18329999999999913
181.516 0.1999999999999993
181.838 0.14999999999999858
182.157 0.06659999999999755
182.476 0.23329999999999984
182.796 0.18329999999999913
183.115 0.21659999999999968
183.434 0.23329999999999984
183.754 0.3332999999999977
184.073 0.13329999999999842
184.392 0.1999999999999993
184.712 0.18329999999999913
185.031 0.23329999999999984
185.35 0.11659999999999826
185.669 0.18329999999999913
185.989 0.28330000000000055
186.308 0.1999999999999993
186.627 0.14999999999999858
186.946 0.18329999999999913
187.265 0.16659999999999897
187.585 0.14999999999999858
187.904 0.21659999999999968
188.223 0.11659999999999826
188.542 0.25
188.861 0.11659999999999826
189.18 0.1999999999999993
189.499 0.21659999999999968
189.818 0.21659999999999968
190.138 0.28330000000000055
190.457 0.3000000000000007
190.776 0.14999999999999858
191.095 0.13329999999999842
191.414 0.16659999999999897
191.733 0.21659999999999968
192.052 0.1999999999999993
192.371 0.13329999999999842
192.69 0.25
193.009 0.16659999999999897
193.328 0.28330000000000055
193.647 0.13329999999999842
193.966 0.14999999999999858
194.285 0.2666000000000004
194.602 0.1999999999999993
194.92 0.16659999999999897
195.239 0.11659999999999826
195.558 0.21659999999999968
195.877 0.1999999999999993
196.196 0.09999999999999787
196.515 0.31659999999999755
196.834 0.25
197.153 0.14999999999999858
197.471 0.28330000000000055
197.79 0.2666000000000004
198.109 0.23329999999999984
198.428 0.13329999999999842
198.747 0.1999999999999993
199.065 0.1999999999999993
199.382 0.18329999999999913
199.701 0.25
200.02 0.16659999999999897
200.338 0.2666000000000004
200.657 0.23329999999999984
200.976 0.23329999999999984
201.295 0.11659999999999826
201.613 0.16659999999999897
201.932 0.18329999999999913
202.251 0.09999999999999787
202.567 0.11659999999999826
202.886 0.1999999999999993
203.204 0.23329999999999984
203.523 0.18329999999999913
203.842 0.09999999999999787
204.16 0.23329999999999984
204.479 0.31659999999999755
204.797 0.28330000000000055
205.114 0.25
205.433 0.13329999999999842
205.751 0.25
206.07 0.25
206.388 0.25
206.707 0.31659999999999755
207.025 0.1999999999999993
207.342 0.1999999999999993
207.66 0.1999999999999993
207.979 0.16659999999999897
208.297 0.1999999999999993
208.615 0.18329999999999913
208.934 0.23329999999999984
209.25 0.13329999999999842
209.569 0.25
209.887 0.28330000000000055
210.205 0.14999999999999858
210.524 0.16659999999999897
210.842 0.18329999999999913
211.158 0.14999999999999858
211.477 0.31659999999999755
211.795 0.21659999999999968
212.113 0.21659999999999968
212.432 0.13329999999999842
212.75 0.09999999999999787
213.066 0.25
213.385 0.18329999999999913
213.703 0.3000000000000007
214.021 0.16659999999999897
214.339 0.09999999999999787
214.656 0.18329999999999913
214.974 0.18329999999999913
215.292 0.18329999999999913
215.61 0.28330000000000055
215.926 0.21659999999999968
216.245 0.2666000000000004
216.563 0.13329999999999842
216.881 0.21659999999999968
217.199 0.3832999999999984
217.515 0.23329999999999984
217.833 0.3000000000000007
218.151 0.16659999999999897
218.469 0.1999999999999993
218.785 0.23329999999999984
219.104 0.18329999999999913
219.422 0.21659999999999968
219.74 0.16659999999999897
220.056 0.25
220.374 0.16659999999999897
220.692 0.2666000000000004
221.01 0.21659999999999968
221.326 0.23329999999999984
221.644 0.2666000000000004
221.962 0.14999999999999858
222.28 0.3000000000000007
222.596 0.3332999999999977
222.914 0.21659999999999968
223.232 0.28330000000000055
223.547 0.14999999999999858
223.865 0.13329999999999842
224.183 0.28330000000000055
224.501 0.18329999999999913
224.817 0.3832999999999984
225.135 0.1999999999999993
225.453 0.3000000000000007
225.768 0.31659999999999755
226.086 0.23329999999999984
226.404 0.28330000000000055
226.722 0.1999999999999993
227.038 0.25
227.355 0.18329999999999913
227.673 0.1999999999999993
227.989 0.14999999999999858
228.307 0.09999999999999787
228.625 0.28330000000000055
228.94 0.23329999999999984
229.258 0.1999999999999993
229.576 0.1999999999999993
229.891 0.16659999999999897
230.209 0.14999999999999858
230.527 0.2666000000000004
230.842 0.09999999999999787
231.16 0.21659999999999968
231.478 0.2666000000000004
231.793 0.28330000000000055
232.111 0.31659999999999755
232.428 0.28330000000000055
232.744 0.2666000000000004
233.062 0.28330000000000055
233.379 0.16659999999999897
233.695 0.3000000000000007
234.012 0.25
234.33 0.2666000000000004
234.645 0.2666000000000004
234.963 0.28330000000000055
235.278 0.1999999999999993
235.596 0.31659999999999755
235.913 0.23329999999999984
236.229 0.2666000000000004
236.546 0.3000000000000007
236.864 0.23329999999999984
237.179 0.16659999999999897
237.497 0.18329999999999913
237.812 0.18329999999999913
238.129 0.3000000000000007
238.447 0.3000000000000007
238.762 0.14999999999999858
239.08 0.3000000000000007
239.395 0.34999999999999787
239.712 0.34999999999999787
240.03 0.21659999999999968
240.345 0.13329999999999842
240.662 0.16659999999999897
240.978 0.2666000000000004
241.295 0.34999999999999787
241.61 0.21659999999999968
241.927 0.1999999999999993
242.245 0.3832999999999984
242.56 0.3332999999999977
242.877 0.2666000000000004
243.192 0.34999999999999787
243.51 0.3832999999999984
243.825 0.25
244.142 0.18329999999999913
244.459 0.31659999999999755
244.774 0.21659999999999968
245.092 0.28330000000000055
245.407 0.3000000000000007
245.724 0.25
246.039 0.25
246.356 0.31659999999999755
246.671 0.1999999999999993
246.988 0.25
247.303 0.16659999999999897
247.62 0.1999999999999993
247.938 0.3000000000000007
248.253 0.1999999999999993
248.57 0.28330000000000055
248.885 0.16659999999999897
249.202 0.23329999999999984
249.517 0.31659999999999755
249.834 0.2666000000000004
250.149 0.1999999999999993
250.466 0.28330000000000055
250.781 0.1999999999999993
251.098 0.18329999999999913
251.412 0.21659999999999968
251.729 0.3000000000000007
252.044 0.16659999999999897
252.361 0.13329999999999842
252.676 0.18329999999999913
252.993 0.23329999999999984
253.308 0.18329999999999913
253.625 0.14999999999999858
253.94 0.28330000000000055
254.256 0.18329999999999913
254.571 0.3332999999999977
254.888 0.16659999999999897
255.203 0.21659999999999968
255.518 0.25
255.834 0.23329999999999984
256.149 0.14999999999999858
256.466 0.3000000000000007
256.781 0.14999999999999858
257.097 0.1999999999999993
257.412 0.31659999999999755
257.729 0.3000000000000007
258.044 0.21659999999999968
258.36 0.23329999999999984
258.675 0.25
258.99 0.2666000000000004
259.306 0.28330000000000055
259.621 0.2666000000000004
259.938 0.3332999999999977
260.252 0.1999999999999993
260.569 0.1999999999999993
260.883 0.23329999999999984
261.198 0.16659999999999897
261.515 0.2666000000000004
261.829 0.21659999999999968
262.146 0.09999999999999787
262.46 0.23329999999999984
262.775 0.1999999999999993
263.091 0.21659999999999968
263.406 0.25
263.723 0.13329999999999842
264.037 0.16659999999999897
264.354 0.23329999999999984
264.668 0.21659999999999968
264.982 0.3000000000000007
265.299 0.23329999999999984
265.613 0.23329999999999984
265.928 0.25
266.244 0.16659999999999897
266.559 0.2666000000000004
266.875 0.23329999999999984
267.189 0.2666000000000004
267.504 0.25
267.82 0.3000000000000007
268.134 0.2666000000000004
268.449 0.1999999999999993
268.765 0.23329999999999984
269.079 0.18329999999999913
269.394 0.2666000000000004
269.71 0.16659999999999897
270.024 0.13329999999999842
270.341 0.14999999999999858
270.655 0.11659999999999826
270.969 0.3332999999999977
271.286 0.25
271.6 0.25
271.914 0.2666000000000004
272.23 0.36659999999999826
272.544 0.21659999999999968
272.859 0.13329999999999842
273.175 0.1999999999999993
273.489 0.21659999999999968
273.803 0.25
274.119 0.28330000000000055
274.433 0.31659999999999755
274.747 0.28330000000000055
275.062 0.16659999999999897
275.378 0.25
275.692 0.1999999999999993
276.006 0.14999999999999858
276.322 0.23329999999999984
276.636 0.1999999999999993
276.95 0.2666000000000004
277.266 0.25
277.58 0.3000000000000007
277.894 0.3332999999999977
278.208 0.23329999999999984
278.524 0.18329999999999913
278.838 0.21659999999999968
279.152 0.25
279.468 0.1999999999999993
279.782 0.3000000000000007
280.096 0.25
280.41 0.3000000000000007
280.726 0.34999999999999787
281.04 0.21659999999999968
281.354 0.25
281.668 0.18329999999999913
281.983 0.25
282.297 0.2666000000000004
282.611 0.2666000000000004
282.925 0.18329999999999913
283.241 0.3332999999999977
283.555 0.18329999999999913
283.868 0.3332999999999977
284.182 0.2666000000000004
284.498 0.1999999999999993
284.812 0.2666000000000004
285.126 0.2666000000000004
285.439 0.14999999999999858
285.753 0.34999999999999787
286.069 0.2666000000000004
286.383 0.14999999999999858
286.696 0.34999999999999787
287.01 0.2666000000000004
287.326 0.16659999999999897
287.639 0.23329999999999984
287.953 0.23329999999999984
288.267 0.3000000000000007
288.58 0.18329999999999913
288.896 0.23329999999999984
289.21 0.25
289.523 0.25
289.837 0.2666000000000004
290.15 0.21659999999999968
290.466 0.25
290.78 0.1999999999999993
291.093 0.21659999999999968
291.407 0.14999999999999858
291.72 0.31659999999999755
292.034 0.1999999999999993
292.349 0.23329999999999984
292.663 0.25
292.976 0.08329999999999771
293.29 0.1999999999999993
293.603 0.25
293.917 0.21659999999999968
294.232 0.23329999999999984
294.546 0.3000000000000007
294.859 0.21659999999999968
295.172 0.3000000000000007
295.486 0.21659999999999968
295.799 0.25
296.113 0.3000000000000007
296.428 0.16659999999999897
296.741 0.1999999999999993
297.055 0.14999999999999858
297.368 0.2666000000000004
297.681 0.31659999999999755
297.995 0.21659999999999968
298.308 0.25
298.621 0.25
298.937 0.28330000000000055
299.25 0.1999999999999993
299.563 0.14999999999999858
299.876 0.34999999999999787
300.19 0.3332999999999977
300.503 0.25
300.816 0.21659999999999968
301.129 0.23329999999999984
301.442 0.2666000000000004
301.756 0.18329999999999913
302.071 0.16659999999999897
302.384 0.1999999999999993
302.697 0.1999999999999993
303.01 0.23329999999999984
303.323 0.21659999999999968
303.637 0.23329999999999984
303.95 0.3000000000000007
304.263 0.2666000000000004
304.576 0.23329999999999984
304.889 0.1999999999999993
305.202 0.13329999999999842
305.515 0.2666000000000004
305.828 0.34999999999999787
306.141 0.3332999999999977
306.456 0.1999999999999993
306.769 0.1999999999999993
307.082 0.2666000000000004
307.395 0.23329999999999984
307.708 0.2666000000000004
308.021 0.13329999999999842
308.334 0.25
308.647 0.3332999999999977
308.96 0.28330000000000055
309.273 0.16659999999999897
309.586 0.23329999999999984
309.899 0.34999999999999787
310.212 0.14999999999999858
310.525 0.25
310.838 0.3832999999999984
311.15 0.1999999999999993
311.463 0.28330000000000055
311.776 0.25
312.089 0.1999999999999993
312.402 0.2666000000000004
312.715 0.16659999999999897
313.027 0.1999999999999993
313.34 0.16659999999999897
313.653 0.3332999999999977
313.966 0.25
314.278 0.18329999999999913
314.591 0.3000000000000007
314.904 0.23329999999999984
315.217 0.18329999999999913
315.529 0.28330000000000055
315.842 0.3000000000000007
316.155 0.23329999999999984
316.467 0.21659999999999968
316.78 0.25
317.093 0.18329999999999913
317.405 0.11659999999999826
317.718 0.23329999999999984
318.031 0.2666000000000004
318.343 0.25
318.656 0.21659999999999968
318.969 0.3332999999999977
319.281 0.1999999999999993
319.592 0.21659999999999968
319.904 0.2666000000000004
320.217 0.1999999999999993
320.529 0.21659999999999968
320.842 0.21659999999999968
321.154 0.18329999999999913
321.467 0.3332999999999977
321.779 0.23329999999999984
322.092 0.14999999999999858
322.404 0.21659999999999968
322.717 0.28330000000000055
323.029 0.3000000000000007
323.342 0.1999999999999993
323.654 0.28330000000000055
323.965 0.3000000000000007
324.277 0.14999999999999858
324.589 0.2666000000000004
324.902 0.31659999999999755
325.214 0.41659999999999897
325.527 0.3832999999999984
325.839 0.36659999999999826
326.151 0.28330000000000055
326.464 0.21659999999999968
326.776 0.21659999999999968
327.086 0.3000000000000007
327.399 0.2666000000000004
327.711 0.2666000000000004
328.023 0.31659999999999755
328.335 0.3000000000000007
328.648 0.34999999999999787
328.96 0.3332999999999977
329.27 0.34999999999999787
329.582 0.3332999999999977
329.895 0.2666000000000004
330.207 0.3332999999999977
330.519 0.41659999999999897
330.831 0.3999999999999986
331.143 0.3832999999999984
331.454 0.3000000000000007
331.766 0.36659999999999826
332.078 0.3000000000000007
332.39 0.34999999999999787
332.702 0.3000000000000007
333.014 0.2666000000000004
333.326 0.3832999999999984
333.636 0.41659999999999897
333.948 0.3832999999999984
334.261 0.34999999999999787
334.573 0.3332999999999977
334.885 0.3332999999999977
335.195 0.43329999999999913
335.507 0.3332999999999977
335.819 0.23329999999999984
336.131 0.2666000000000004
336.443 0.2666000000000004
336.753 0.2666000000000004
337.065 0.23329999999999984
337.377 0.2666000000000004
337.689 0.2666000000000004
338.001 0.2666000000000004
338.31 0.3832999999999984
338.622 0.3332999999999977
338.934 0.31659999999999755
339.246 0.1999999999999993
339.558 0.36659999999999826
339.868 0.28330000000000055
340.18 0.2666000000000004
340.492 0.31659999999999755
340.804 0.41659999999999897
341.113 0.3000000000000007
341.425 0.21659999999999968
341.737 0.36659999999999826
342.049 0.36659999999999826
342.361 0.25
342.67 0.3000000000000007
342.982 0.34999999999999787
343.294 0.3999999999999986
343.606 0.3000000000000007
343.915 0.3332999999999977
344.227 0.36659999999999826
344.539 0.43329999999999913
344.849 0.21659999999999968
345.16 0.36659999999999826
345.472 0.3332999999999977
345.784 0.2666000000000004
346.093 0.31659999999999755
346.405 0.31659999999999755
346.717 0.18329999999999913
347.028 0.3000000000000007
347.338 0.36659999999999826
347.649 0.3332999999999977
347.961 0.36659999999999826
348.271 0.14999999999999858
348.582 0.3332999999999977
348.894 0.43329999999999913
349.205 0.21659999999999968
349.515 0.3000000000000007
349.826 0.43329999999999913
350.138 0.3000000000000007
350.447 0.3832999999999984
350.759 0.2666000000000004
351.07 0.3999999999999986
351.38 0.28330000000000055
351.691 0.23329999999999984
352.003 0.31659999999999755
352.312 0.31659999999999755
352.624 0.34999999999999787
352.935 0.2666000000000004
353.245 0.31659999999999755
353.556 0.3332999999999977
353.867 0.16659999999999897
354.177 0.31659999999999755
354.488 0.28330000000000055
354.799 0.21659999999999968
355.109 0.2666000000000004
355.42 0.3332999999999977
355.732 0.28330000000000055
356.041 0.21659999999999968
356.352 0.3332999999999977
356.663 0.23329999999999984
356.973 0.2666000000000004
357.284 0.3832999999999984
357.593 0.28330000000000055
357.905 0.34999999999999787
358.216 0.28330000000000055
358.525 0.3332999999999977
358.836 0.2666000000000004
359.147 0.28330000000000055
359.457 0.3332999999999977
359.768 0.23329999999999984
360.077 0.23329999999999984
360.388 0.3000000000000007
360.699 0.3000000000000007
361.008 0.41659999999999897
361.32 0.3832999999999984
361.629 0.25
361.94 0.3000000000000007
362.251 0.43329999999999913
362.56 0.36659999999999826
362.871 0.25
363.18 0.3332999999999977
363.491 0.34999999999999787
363.8 0.2666000000000004
364.111 0.3332999999999977
364.422 0.3832999999999984
364.731 0.3999999999999986
365.042 0.21659999999999968
365.351 0.34999999999999787
365.662 0.3000000000000007
365.971 0.31659999999999755
366.282 0.34999999999999787
366.593 0.3332999999999977
366.902 0.25
367.213 0.25
367.522 0.3000000000000007
367.833 0.25
368.142 0.34999999999999787
368.453 0.34999999999999787
368.762 0.3832999999999984
369.073 0.23329999999999984
369.381 0.3000000000000007
369.692 0.21659999999999968
370.001 0.34999999999999787
370.312 0.3332999999999977
370.623 0.21659999999999968
370.932 0.34999999999999787
371.242 0.18329999999999913
371.551 0.3332999999999977
371.862 0.3000000000000007
372.171 0.3999999999999986
372.482 0.2666000000000004
372.79 0.1999999999999993
373.101 0.23329999999999984
373.41 0.31659999999999755
373.721 0.34999999999999787
374.029 0.3332999999999977
374.34 0.28330000000000055
374.649 0.34999999999999787
374.959 0.36659999999999826
375.268 0.25
375.577 0.31659999999999755
375.887 0.28330000000000055
376.196 0.28330000000000055
376.506 0.31659999999999755
376.815 0.3000000000000007
377.126 0.4499999999999993
377.434 0.34999999999999787
377.745 0.3000000000000007
378.053 0.41659999999999897
378.364 0.36659999999999826
378.672 0.3332999999999977
378.983 0.2666000000000004
379.292 0.21659999999999968
379.6 0.36659999999999826
379.911 0.28330000000000055
380.219 0.23329999999999984
380.53 0.2666000000000004
380.838 0.34999999999999787
381.148 0.31659999999999755
381.457 0.3332999999999977
381.767 0.21659999999999968
382.076 0.31659999999999755
382.384 0.36659999999999826
382.695 0.3332999999999977
383.003 0.3832999999999984
383.313 0.4499999999999993
383.622 0.3332999999999977
383.93 0.28330000000000055
384.24 0.3000000000000007
384.549 0.3332999999999977
384.859 0.3832999999999984
385.167 0.25
385.476 0.23329999999999984
385.786 0.23329999999999984
386.094 0.3999999999999986
386.405 0.3832999999999984
386.713 0.31659999999999755
387.021 0.34999999999999787
387.331 0.41659999999999897
387.64 0.43329999999999913
387.948 0.36659999999999826
388.258 0.3000000000000007
388.566 0.3332999999999977
388.877 0.31659999999999755
389.185 0.3832999999999984
389.493 0.4665999999999997
389.803 0.41659999999999897
390.111 0.3332999999999977
390.419 0.4499999999999993
390.729 0.25
391.038 0.41659999999999897
391.346 0.3999999999999986
391.656 0.3000000000000007
391.964 0.28330000000000055
392.272 0.3000000000000007
392.582 0.3332999999999977
392.89 0.48329999999999984
393.198 0.3332999999999977
393.508 0.3332999999999977
393.816 0.3000000000000007
394.124 0.36659999999999826
394.434 0.3999999999999986
394.742 0.31659999999999755
395.05 0.43329999999999913
395.36 0.4665999999999997
395.668 0.43329999999999913
395.976 0.2666000000000004
396.286 0.23329999999999984
396.594 0.3999999999999986
396.902 0.31659999999999755
397.21 0.43329999999999913
397.52 0.41659999999999897
397.828 0.28330000000000055
398.135 0.41659999999999897
398.445 0.3999999999999986
398.753 0.23329999999999984
399.061 0.34999999999999787
399.369 0.36659999999999826
399.679 0.31659999999999755
399.987 0.18329999999999913
400.294 0.5500000000000007
400.604 0.3832999999999984
400.912 0.3832999999999984
401.22 0.3332999999999977
401.527 0.41659999999999897
401.837 0.3832999999999984
402.145 0.3832999999999984
402.453 0.34999999999999787
402.76 0.43329999999999913
403.07 0.4499999999999993
403.378 0.5333000000000006
403.686 0.5
403.993 0.36659999999999826
404.303 0.3332999999999977
404.611 0.5166000000000004
404.918 0.3332999999999977
405.226 0.5333000000000006
405.533 0.23329999999999984
405.843 0.3332999999999977
406.151 0.48329999999999984
406.458 0.3832999999999984
406.766 0.36659999999999826
407.076 0.3999999999999986
407.383 0.2666000000000004
407.691 0.31659999999999755
407.998 0.36659999999999826
408.306 0.4665999999999997
408.615 0.3999999999999986
408.923 0.36659999999999826
409.23 0.5333000000000006
409.538 0.34999999999999787
409.845 0.5832999999999977
410.153 0.3999999999999986
410.462 0.5
410.77 0.5665999999999976
411.077 0.5500000000000007
411.384 0.43329999999999913
411.692 0.5999999999999979
412.001 0.34999999999999787
412.309 0.48329999999999984
412.616 0.41659999999999897
412.923 0.5
413.231 0.4665999999999997
413.538 0.4499999999999993
413.845 0.5
414.155 0.43329999999999913
414.462 0.5333000000000006
414.769 0.5999999999999979
415.077 0.6165999999999983
415.384 0.6165999999999983
415.691 0.5832999999999977
415.999 0.6332999999999984
416.308 0.5
416.615 0.6332999999999984
416.922 0.7332999999999998
417.23 0.7666000000000004
417.537 0.916599999999999
417.844 0.75
418.151 0.8332999999999977
418.458 0.8499999999999979
418.768 0.8499999999999979
419.075 0.8165999999999976
419.382 0.7666000000000004
419.689 0.9332999999999991
419.996 0.916599999999999
420.303 0.9499999999999993
420.61 1.1165999999999983
420.918 1.0999999999999979
421.225 1.1165999999999983
421.532 1.0665999999999976
421.841 1.0500000000000007
422.148 1.2332999999999998
422.455 1.0333000000000006
422.762 1.1332999999999984
423.069 1.3665999999999983
423.376 1.1999999999999993
423.683 1.0999999999999979
423.99 1.166599999999999
424.297 1.1999999999999993
424.604 1.1832999999999991
424.911 1.166599999999999
425.218 1.3999999999999986
425.525 0.9499999999999993
425.832 1.0999999999999979
426.139 1.1332999999999984
426.446 1.0333000000000006
426.753 1.0665999999999976
427.061 1.1165999999999983
427.368 0.916599999999999
427.675 0.916599999999999
427.982 0.9832999999999998
428.289 0.7666000000000004
428.596 1.0333000000000006
428.903 1.0166000000000004
429.209 0.8832999999999984
429.516 0.75
429.823 0.7833000000000006
430.13 0.7833000000000006
430.437 0.7165999999999997
430.743 0.7833000000000006
431.05 0.6165999999999983
431.357 0.6165999999999983
431.664 0.6832999999999991
431.97 0.5500000000000007
432.277 0.666599999999999
432.584 0.7666000000000004
432.891 0.5333000000000006
433.197 0.6832999999999991
433.504 0.6165999999999983
433.811 0.666599999999999
434.117 0.5665999999999976
434.424 0.6499999999999986
434.731 0.5665999999999976
435.037 0.5333000000000006
435.344 0.7332999999999998
435.65 0.4665999999999997
435.957 0.41659999999999897
436.262 0.41659999999999897
436.568 0.5
436.875 0.3332999999999977
437.181 0.4665999999999997
437.488 0.5500000000000007
437.794 0.4665999999999997
438.101 0.41659999999999897
438.407 0.5665999999999976
438.714 0.48329999999999984
439.02 0.48329999999999984
439.327 0.34999999999999787
439.633 0.5500000000000007
439.94 0.5
440.246 0.5999999999999979
440.553 0.4499999999999993
440.859 0.5832999999999977
441.163 0.5166000000000004
441.47 0.41659999999999897
441.776 0.5665999999999976
442.083 0.4665999999999997
442.389 0.4499999999999993
442.695 0.41659999999999897
443.002 0.5
443.308 0.3999999999999986
443.614 0.5500000000000007
443.921 0.5333000000000006
444.225 0.5333000000000006
444.531 0.4499999999999993
444.838 0.34999999999999787
445.144 0.3999999999999986
445.45 0.3332999999999977
445.757 0.3999999999999986
446.063 0.3832999999999984
446.369 0.36659999999999826
446.675 0.28330000000000055
446.979 0.3999999999999986
447.286 0.3999999999999986
447.592 0.36659999999999826
447.898 0.43329999999999913
448.204 0.28330000000000055
448.51 0.3332999999999977
448.817 0.43329999999999913
449.121 0.4499999999999993
449.427 0.48329999999999984
449.733 0.5166000000000004
450.039 0.48329999999999984
450.345 0.5333000000000006
450.651 0.5333000000000006
450.955 0.48329999999999984
451.261 0.5
451.568 0.3999999999999986
451.874 0.36659999999999826
452.18 0.41659999999999897
452.486 0.41659999999999897
452.79 0.48329999999999984
453.096 0.5333000000000006
453.402 0.36659999999999826
453.708 0.3832999999999984
454.014 0.3999999999999986
454.318 0.3999999999999986
454.624 0.4665999999999997
454.93 0.4499999999999993
455.236 0.3332999999999977
455.541 0.3832999999999984
455.845 0.43329999999999913
456.151 0.48329999999999984
456.457 0.3999999999999986
456.763 0.3332999999999977
457.067 0.4665999999999997
457.373 0.3832999999999984
457.679 0.3999999999999986
457.985 0.36659999999999826
458.29 0.4665999999999997
458.594 0.4499999999999993
458.9 0.3999999999999986
459.206 0.43329999999999913
459.512 0.1999999999999993
459.815 0.3832999999999984
460.121 0.4665999999999997
460.427 0.31659999999999755
460.733 0.3999999999999986
461.036 0.2666000000000004
461.342 0.43329999999999913
461.648 0.36659999999999826
461.954 0.3332999999999977
462.257 0.3999999999999986
462.563 0.4665999999999997
462.869 0.2666000000000004
463.172 0.34999999999999787
463.478 0.4665999999999997
463.784 0.43329999999999913
464.089 0.3000000000000007
464.393 0.43329999999999913
464.699 0.43329999999999913
465.004 0.41659999999999897
465.308 0.36659999999999826
465.613 0.3832999999999984
465.919 0.48329999999999984
466.225 0.43329999999999913
466.528 0.34999999999999787
466.834 0.48329999999999984
467.139 0.36659999999999826
467.443 0.4665999999999997
467.748 0.34999999999999787
468.054 0.3332999999999977
468.357 0.43329999999999913
468.663 0.41659999999999897
468.968 0.3332999999999977
469.272 0.3832999999999984
469.577 0.41659999999999897
469.883 0.3332999999999977
470.186 0.3832999999999984
470.492 0.3832999999999984
470.797 0.5500000000000007
471.1 0.43329999999999913
471.406 0.4665999999999997
471.711 0.3832999999999984
472.014 0.4665999999999997
472.32 0.4665999999999997
472.625 0.3999999999999986
472.929 0.5500000000000007
473.234 0.36659999999999826
473.539 0.48329999999999984
473.843 0.43329999999999913
474.148 0.4499999999999993
474.451 0.5832999999999977
474.756 0.5500000000000007
475.062 0.5665999999999976
475.365 0.41659999999999897
475.67 0.5665999999999976
475.973 0.43329999999999913
476.279 0.4665999999999997
476.584 0.5999999999999979
476.887 0.6499999999999986
477.192 0.7165999999999997
477.498 0.5832999999999977
477.801 0.7666000000000004
478.106 0.9665999999999997
478.409 0.6832999999999991
478.714 0.9332999999999991
479.017 0.8165999999999976
479.322 0.5999999999999979
479.628 0.7666000000000004
479.931 0.7332999999999998
480.236 0.8332999999999977
480.539 1.0166000000000004
480.844 0.7165999999999997
481.147 0.8665999999999983
481.452 0.8832999999999984
481.757 0.8165999999999976
482.06 0.9832999999999998
482.365 0.8165999999999976
482.668 0.8165999999999976
482.973 0.7833000000000006
483.276 0.7833000000000006
483.581 0.6999999999999993
483.884 0.7666000000000004
484.189 0.6165999999999983
484.494 0.5999999999999979
484.797 0.4499999999999993
485.102 0.5665999999999976
485.405 0.41659999999999897
485.71 0.5
486.013 0.4665999999999997
486.318 0.4499999999999993
486.621 0.3832999999999984
486.925 0.43329999999999913
487.228 0.4499999999999993
487.533 0.3999999999999986
487.836 0.4665999999999997
488.141 0.48329999999999984
488.444 0.41659999999999897
488.748 0.4499999999999993
489.051 0.5333000000000006
489.356 0.4665999999999997
489.659 0.4499999999999993
489.964 0.2666000000000004
490.266 0.41659999999999897
490.571 0.43329999999999913
490.874 0.3332999999999977
491.179 0.3999999999999986
491.481 0.25
491.786 0.5500000000000007
492.089 0.28330000000000055
492.393 0.5
492.696 0.43329999999999913
493.001 0.2666000000000004
493.303 0.5166000000000004
493.606 0.3999999999999986
493.911 0.3332999999999977
494.213 0.3999999999999986
494.518 0.3999999999999986
494.821 0.34999999999999787
495.125 0.28330000000000055
495.428 0.3999999999999986
495.732 0.4665999999999997
496.035 0.3999999999999986
496.337 0.3999999999999986
496.642 0.41659999999999897
496.945 0.41659999999999897
497.249 0.3832999999999984
497.552 0.4665999999999997
497.856 0.31659999999999755
498.159 0.3832999999999984
498.461 0.4665999999999997
498.766 0.34999999999999787
499.068 0.43329999999999913
499.372 0.36659999999999826
499.675 0.34999999999999787
499.977 0.43329999999999913
500.282 0.4499999999999993
500.584 0.41659999999999897
500.889 0.31659999999999755
501.191 0.3332999999999977
501.493 0.3832999999999984
501.798 0.34999999999999787
502.1 0.34999999999999787
502.402 0.3999999999999986
502.707 0.3999999999999986
503.009 0.3332999999999977
503.314 0.3000000000000007
503.616 0.48329999999999984
503.918 0.34999999999999787
504.222 0.41659999999999897
504.525 0.36659999999999826
504.827 0.36659999999999826
505.131 0.3999999999999986
505.433 0.4665999999999997
505.736 0.3332999999999977
506.04 0.36659999999999826
506.342 0.28330000000000055
506.646 0.3999999999999986
506.949 0.3832999999999984
507.251 0.36659999999999826
507.555 0.43329999999999913
507.857 0.3999999999999986
508.159 0.31659999999999755
508.461 0.3332999999999977
508.766 0.36659999999999826
509.068 0.3332999999999977
509.37 0.3832999999999984
509.674 0.3332999999999977
509.976 0.4665999999999997
510.278 0.3832999999999984
510.582 0.43329999999999913
510.884 0.3832999999999984
511.186 0.43329999999999913
511.49 0.3332999999999977
511.792 0.3000000000000007
512.094 0.3000000000000007
512.396 0.43329999999999913
512.701 0.25
513.003 0.41659999999999897
513.305 0.3332999999999977
513.609 0.3999999999999986
513.91 0.3832999999999984
514.212 0.1999999999999993
514.514 0.3000000000000007
514.818 0.34999999999999787
515.12 0.3332999999999977
515.422 0.3832999999999984
515.724 0.3832999999999984
516.028 0.28330000000000055
516.33 0.3832999999999984
516.632 0.3332999999999977
516.934 0.28330000000000055
517.237 0.43329999999999913
517.539 0.34999999999999787
517.841 0.43329999999999913
518.143 0.43329999999999913
518.447 0.3332999999999977
518.749 0.31659999999999755
519.05 0.3000000000000007
519.352 0.1999999999999993
519.656 0.48329999999999984
519.958 0.28330000000000055
520.26 0.34999999999999787
520.561 0.34999999999999787
520.863 0.34999999999999787
521.167 0.3332999999999977
521.468 0.31659999999999755
521.77 0.43329999999999913
522.072 0.31659999999999755
522.376 0.25
522.677 0.3999999999999986
522.979 0.34999999999999787
523.281 0.3000000000000007
523.582 0.34999999999999787
523.884 0.48329999999999984
524.187 0.18329999999999913
524.489 0.3999999999999986
524.791 0.3999999999999986
525.092 0.3332999999999977
525.394 0.3832999999999984
525.697 0.4665999999999997
525.999 0.3332999999999977
526.301 0.31659999999999755
526.602 0.41659999999999897
526.904 0.3000000000000007
527.205 0.43329999999999913
527.507 0.3332999999999977
527.81 0.3832999999999984
528.112 0.31659999999999755
528.413 0.3832999999999984
528.715 0.3832999999999984
529.016 0.31659999999999755
529.318 0.34999999999999787
529.619 0.4499999999999993
529.922 0.3332999999999977
530.224 0.28330000000000055
530.525 0.4665999999999997
530.827 0.3999999999999986
531.128 0.34999999999999787
531.429 0.48329999999999984
531.731 0.25
532.032 0.31659999999999755
532.336 0.34999999999999787
532.637 0.36659999999999826
532.938 0.3000000000000007
533.24 0.4665999999999997
533.541 0.34999999999999787
533.842 0.36659999999999826
534.143 0.36659999999999826
534.445 0.5
534.746 0.23329999999999984
535.047 0.21659999999999968
535.351 0.36659999999999826
535.652 0.41659999999999897
535.953 0.48329999999999984
536.254 0.3000000000000007
536.555 0.31659999999999755
536.857 0.3999999999999986
537.158 0.36659999999999826
537.459 0.4499999999999993
537.76 0.3332999999999977
538.061 0.34999999999999787
538.362 0.3000000000000007
538.664 0.43329999999999913
538.965 0.34999999999999787
539.266 0.3832999999999984
539.567 0.41659999999999897
539.868 0.36659999999999826
540.169 0.28330000000000055
540.472 0.48329999999999984
540.773 0.36659999999999826
541.074 0.5
541.375 0.43329999999999913
541.677 0.3832999999999984
541.978 0.34999999999999787
542.279 0.34999999999999787
542.58 0.41659999999999897
542.881 0.4499999999999993
543.182 0.34999999999999787
543.483 0.3332999999999977
543.784 0.36659999999999826
544.085 0.31659999999999755
544.385 0.5
544.686 0.3332999999999977
544.987 0.4665999999999997
545.288 0.34999999999999787
545.589 0.4665999999999997
545.89 0.31659999999999755
546.191 0.3999999999999986
546.492 0.34999999999999787
546.793 0.3832999999999984
547.094 0.4665999999999997
547.394 0.2666000000000004
547.695 0.4499999999999993
547.996 0.36659999999999826
548.297 0.34999999999999787
548.596 0.48329999999999984
548.897 0.5333000000000006
549.197 0.48329999999999984
549.498 0.5166000000000004
549.799 0.48329999999999984
550.1 0.5999999999999979
550.4 0.5665999999999976
550.701 0.3332999999999977
551.002 0.666599999999999
551.303 0.5333000000000006
551.603 0.5999999999999979
551.904 0.4499999999999993
552.205 0.48329999999999984
552.505 0.5665999999999976
552.806 0.4499999999999993
553.107 0.5665999999999976
553.407 0.6165999999999983
553.706 0.6332999999999984
554.007 0.5999999999999979
554.307 0.48329999999999984
554.608 0.666599999999999
554.909 0.4665999999999997
555.209 0.5333000000000006
555.51 0.4665999999999997
555.81 0.5999999999999979
556.111 0.6165999999999983
556.411 0.5832999999999977
556.71 0.5500000000000007
557.01 0.5665999999999976
557.311 0.6165999999999983
557.612 0.6999999999999993
557.912 0.43329999999999913
558.213 0.5
558.513 0.5333000000000006
558.813 0.5
559.112 0.4499999999999993
559.412 0.5333000000000006
559.713 0.5832999999999977
560.013 0.41659999999999897
560.314 0.3832999999999984
560.614 0.5
560.914 0.28330000000000055
561.213 0.4665999999999997
561.513 0.5333000000000006
561.814 0.4665999999999997
562.114 0.4665999999999997
562.414 0.5166000000000004
562.715 0.5832999999999977
563.015 0.41659999999999897
563.313 0.5500000000000007
563.614 0.36659999999999826
563.914 0.3832999999999984
564.214 0.43329999999999913
564.515 0.3999999999999986
564.813 0.34999999999999787
565.113 0.4499999999999993
565.413 0.4665999999999997
565.714 0.3832999999999984
566.014 0.4665999999999997
566.312 0.3000000000000007
566.612 0.4499999999999993
566.912 0.4665999999999997
567.213 0.3000000000000007
567.513 0.36659999999999826
567.811 0.43329999999999913
568.111 0.34999999999999787
568.411 0.34999999999999787
568.712 0.3332999999999977
569.012 0.31659999999999755
569.31 0.34999999999999787
569.61 0.43329999999999913
569.91 0.3999999999999986
570.21 0.3999999999999986
570.508 0.34999999999999787
570.808 0.36659999999999826
571.108 0.3999999999999986
571.408 0.41659999999999897
571.706 0.3832999999999984
572.006 0.3000000000000007
572.306 0.6832999999999991
572.607 0.34999999999999787
572.904 0.3999999999999986
573.204 0.31659999999999755
573.505 0.5166000000000004
573.805 0.41659999999999897
574.102 0.3332999999999977
574.402 0.3832999999999984
574.702 0.3000000000000007
575.002 0.36659999999999826
575.3 0.4499999999999993
575.6 0.41659999999999897
575.9 0.31659999999999755
576.198 0.41659999999999897
576.498 0.3332999999999977
576.798 0.34999999999999787
577.098 0.28330000000000055
577.395 0.43329999999999913
577.695 0.34999999999999787
577.995 0.34999999999999787
578.293 0.3332999999999977
578.593 0.28330000000000055
578.893 0.3000000000000007
579.19 0.3832999999999984
579.49 0.41659999999999897
579.79 0.3000000000000007
580.088 0.43329999999999913
580.387 0.36659999999999826
580.687 0.3999999999999986
580.985 0.3832999999999984
581.285 0.3832999999999984
581.584 0.3332999999999977
581.882 0.36659999999999826
582.182 0.3000000000000007
582.482 0.48329999999999984
582.779 0.36659999999999826
583.079 0.31659999999999755
583.378 0.3332999999999977
583.676 0.34999999999999787
583.976 0.48329999999999984
584.275 0.3332999999999977
584.573 0.36659999999999826
584.873 0.5
585.17 0.3832999999999984
585.47 0.4665999999999997
585.769 0.31659999999999755
586.067 0.1999999999999993
586.367 0.43329999999999913
586.666 0.3999999999999986
586.964 0.31659999999999755
587.263 0.36659999999999826
587.561 0.36659999999999826
587.86 0.3332999999999977
588.16 0.5166000000000004
588.457 0.4665999999999997
588.757 0.48329999999999984
589.054 0.3332999999999977
589.354 0.3832999999999984
589.653 0.48329999999999984
589.951 0.3332999999999977
590.25 0.41659999999999897
590.547 0.4665999999999997
590.847 0.4499999999999993
591.144 0.5166000000000004
591.444 0.5
591.743 0.4665999999999997
592.04 0.3000000000000007
592.34 0.36659999999999826
592.637 0.41659999999999897
592.936 0.2666000000000004
593.234 0.3332999999999977
593.533 0.4499999999999993
593.832 0.3999999999999986
594.13 0.3332999999999977
594.429 0.41659999999999897
594.726 0.4499999999999993
595.026 0.3999999999999986
595.323 0.5
595.622 0.28330000000000055
595.919 0.3832999999999984
596.219 0.36659999999999826
596.516 0.3332999999999977
596.815 0.5166000000000004
597.112 0.48329999999999984
597.411 0.3332999999999977
597.709 0.43329999999999913
598.008 0.3332999999999977
598.305 0.3832999999999984
598.604 0.34999999999999787
598.901 0.34999999999999787
599.2 0.4665999999999997
599.497 0.2666000000000004
599.797 0.34999999999999787
600.094 0.36659999999999826
600.393 0.41659999999999897
600.69 0.41659999999999897
600.989 0.5333000000000006
601.286 0.4665999999999997
601.585 0.3832999999999984
601.882 0.5333000000000006
602.181 0.3832999999999984
602.478 0.4499999999999993
602.777 0.5
603.074 0.34999999999999787
603.373 0.43329999999999913
603.67 0.5333000000000006
603.969 0.34999999999999787
604.266 0.34999999999999787
604.563 0.43329999999999913
604.862 0.5500000000000007
605.159 0.48329999999999984
605.458 0.4499999999999993
605.755 0.34999999999999787
606.054 0.31659999999999755
606.351 0.4665999999999997
606.65 0.4665999999999997
606.946 0.3332999999999977
607.243 0.5333000000000006
607.542 0.36659999999999826
607.839 0.5166000000000004
608.138 0.48329999999999984
608.435 0.36659999999999826
608.732 0.5
609.03 0.41659999999999897
609.327 0.6332999999999984
609.626 0.43329999999999913
609.923 0.5999999999999979
610.22 0.43329999999999913
610.518 0.43329999999999913
610.815 0.6499999999999986
611.114 0.4665999999999997
611.411 0.43329999999999913
611.707 0.34999999999999787
612.006 0.41659999999999897
612.303 0.5999999999999979
612.601 0.6499999999999986
612.898 0.3999999999999986
613.195 0.5166000000000004
613.493 0.5999999999999979
613.79 0.4665999999999997
614.087 0.5166000000000004
614.385 0.4665999999999997
614.682 0.4665999999999997
614.979 0.4665999999999997
615.277 0.5166000000000004
615.574 0.41659999999999897
615.87 0.6165999999999983
616.169 0.43329999999999913
616.466 0.4499999999999993
616.764 0.4665999999999997
617.061 0.5999999999999979
617.357 0.5665999999999976
617.656 0.43329999999999913
617.952 0.5
618.249 0.5166000000000004
618.545 0.4665999999999997
618.844 0.48329999999999984
619.14 0.3832999999999984
619.437 0.4665999999999997
619.735 0.3832999999999984
620.032 0.41659999999999897
620.328 0.4499999999999993
620.626 0.3999999999999986
620.923 0.3999999999999986
621.219 0.41659999999999897
621.518 0.3832999999999984
621.814 0.43329999999999913
622.11 0.5166000000000004
622.407 0.3832999999999984
622.705 0.4499999999999993
623.002 0.3999999999999986
623.298 0.36659999999999826
623.594 0.3832999999999984
623.893 0.43329999999999913
624.189 0.3999999999999986
624.485 0.3832999999999984
624.784 0.3999999999999986
625.08 0.3999999999999986
625.376 0.41659999999999897
625.672 0.41659999999999897
625.971 0.48329999999999984
626.267 0.43329999999999913
626.563 0.4665999999999997
626.859 0.3332999999999977
627.158 0.43329999999999913
627.454 0.43329999999999913
627.75 0.4499999999999993
628.046 0.4499999999999993
628.342 0.3332999999999977
628.641 0.41659999999999897
628.937 0.23329999999999984
629.233 0.3000000000000007
629.529 0.41659999999999897
629.827 0.3832999999999984
630.123 0.43329999999999913
630.419 0.43329999999999913
630.715 0.3999999999999986
631.011 0.43329999999999913
631.31 0.6332999999999984
631.606 0.3832999999999984
631.902 0.34999999999999787
632.198 0.5166000000000004
632.494 0.41659999999999897
632.792 0.4665999999999997
633.088 0.43329999999999913
633.384 0.3999999999999986
633.68 0.5
633.976 0.48329999999999984
634.272 0.43329999999999913
634.57 0.3832999999999984
634.866 0.5166000000000004
635.162 0.5
635.458 0.3000000000000007
635.754 0.5999999999999979
636.05 0.3832999999999984
636.347 0.4499999999999993
636.643 0.36659999999999826
636.939 0.4665999999999997
637.235 0.5166000000000004
637.531 0.34999999999999787
637.827 0.36659999999999826
638.123 0.4499999999999993
638.421 0.48329999999999984
638.716 0.36659999999999826
639.012 0.41659999999999897
639.308 0.5665999999999976
639.604 0.48329999999999984
639.9 0.34999999999999787
640.195 0.4499999999999993
640.491 0.41659999999999897
640.789 0.34999999999999787
641.085 0.41659999999999897
641.381 0.5166000000000004
641.676 0.41659999999999897
641.972 0.4499999999999993
642.268 0.41659999999999897
642.563 0.4665999999999997
642.859 0.34999999999999787
643.155 0.36659999999999826
643.451 0.48329999999999984
643.746 0.48329999999999984
644.044 0.5
644.34 0.3000000000000007
644.635 0.34999999999999787
644.931 0.36659999999999826
645.227 0.3832999999999984
645.522 0.5166000000000004
645.818 0.41659999999999897
646.113 0.48329999999999984
646.409 0.4499999999999993
646.704 0.41659999999999897
647.0 0.4499999999999993
647.296 0.43329999999999913
647.591 0.5
647.887 0.3332999999999977
648.182 0.4499999999999993
648.478 0.48329999999999984
648.773 0.3999999999999986
649.069 0.5166000000000004
649.366 0.43329999999999913
649.662 0.3332999999999977
649.957 0.34999999999999787
650.253 0.5665999999999976
650.548 0.43329999999999913
650.844 0.43329999999999913
651.139 0.5
651.434 0.5500000000000007
651.73 0.34999999999999787
652.025 0.4499999999999993
652.321 0.41659999999999897
652.616 0.5999999999999979
652.911 0.5333000000000006
653.207 0.3832999999999984
653.502 0.5500000000000007
653.797 0.4665999999999997
654.093 0.5500000000000007
654.388 0.5333000000000006
654.683 0.41659999999999897
654.979 0.4499999999999993
655.274 0.41659999999999897
655.567 0.43329999999999913
655.863 0.5999999999999979
656.158 0.5333000000000006
656.453 0.6165999999999983
656.748 0.7332999999999998
657.044 0.5500000000000007
657.339 0.5166000000000004
657.634 0.5
657.929 0.5333000000000006
658.224 0.5999999999999979
658.52 0.6999999999999993
658.815 0.6999999999999993
659.11 0.41659999999999897
659.405 0.75
659.7 0.7332999999999998
659.995 0.6832999999999991
660.291 0.5500000000000007
660.586 0.6332999999999984
660.879 0.8000000000000007
661.174 0.7165999999999997
661.469 0.6165999999999983
661.764 0.7666000000000004
662.059 0.6499999999999986
662.354 0.6499999999999986
662.649 0.5166000000000004
662.944 0.6165999999999983
663.239 0.5333000000000006
663.534 0.6832999999999991
663.83 0.4665999999999997
664.122 0.5
664.417 0.666599999999999
664.713 0.5999999999999979
665.008 0.5665999999999976
665.302 0.666599999999999
665.597 0.5166000000000004
665.892 0.5166000000000004
666.187 0.5
666.48 0.6165999999999983
666.775 0.5
667.07 0.5333000000000006
667.365 0.5333000000000006
667.66 0.6999999999999993
667.955 0.5333000000000006
668.25 0.48329999999999984
668.542 0.5166000000000004
668.837 0.5333000000000006
669.132 0.3999999999999986
669.427 0.41659999999999897
669.722 0.5832999999999977
670.017 0.41659999999999897
670.31 0.4665999999999997
670.604 0.41659999999999897
670.899 0.4665999999999997
671.194 0.43329999999999913
671.489 0.48329999999999984
671.783 0.3999999999999986
672.076 0.48329999999999984
672.371 0.3832999999999984
672.666 0.43329999999999913
672.96 0.41659999999999897
673.255 0.5333000000000006
673.548 0.41659999999999897
673.842 0.5166000000000004
674.137 0.4665999999999997
674.432 0.31659999999999755
674.727 0.5
675.019 0.3999999999999986
675.314 0.3999999999999986
675.608 0.3832999999999984
675.903 0.4499999999999993
676.196 0.5500000000000007
676.49 0.5166000000000004
676.785 0.3832999999999984
677.079 0.3999999999999986
677.374 0.36659999999999826
677.667 0.4499999999999993
677.961 0.36659999999999826
678.256 0.34999999999999787
678.55 0.3832999999999984
678.843 0.4499999999999993
679.137 0.5
679.432 0.3000000000000007
679.726 0.3999999999999986
680.019 0.5665999999999976
680.313 0.34999999999999787
680.608 0.5166000000000004
680.902 0.36659999999999826
681.195 0.2666000000000004
681.489 0.3999999999999986
681.784 0.43329999999999913
682.076 0.5333000000000006
682.37 0.3999999999999986
682.665 0.41659999999999897
682.959 0.41659999999999897
683.252 0.48329999999999984
683.546 0.48329999999999984
683.84 0.36659999999999826
684.133 0.43329999999999913
684.427 0.31659999999999755
684.721 0.5333000000000006
685.014 0.3832999999999984
685.308 0.4665999999999997
685.602 0.3999999999999986
685.895 0.4499999999999993
686.189 0.4499999999999993
686.483 0.3332999999999977
686.778 0.3999999999999986
687.07 0.4499999999999993
687.364 0.34999999999999787
687.658 0.4499999999999993
687.951 0.34999999999999787
688.245 0.3332999999999977
688.537 0.5
688.831 0.43329999999999913
689.125 0.34999999999999787
689.418 0.4499999999999993
689.712 0.41659999999999897
690.006 0.3832999999999984
690.298 0.3332999999999977
690.592 0.3832999999999984
690.886 0.23329999999999984
691.178 0.4499999999999993
691.473 0.41659999999999897
691.767 0.31659999999999755
692.059 0.41659999999999897
692.353 0.41659999999999897
692.645 0.5
692.939 0.5665999999999976
693.233 0.41659999999999897
693.525 0.5
693.819 0.34999999999999787
694.111 0.2666000000000004
694.405 0.36659999999999826
694.699 0.34999999999999787
694.991 0.3332999999999977
695.285 0.4665999999999997
695.577 0.3832999999999984
695.871 0.3999999999999986
696.165 0.3000000000000007
696.457 0.43329999999999913
696.751 0.4499999999999993
697.043 0.31659999999999755
697.337 0.3332999999999977
697.629 0.36659999999999826
697.923 0.3332999999999977
698.217 0.36659999999999826
698.509 0.3332999999999977
698.802 0.43329999999999913
699.094 0.3832999999999984
699.388 0.48329999999999984
699.68 0.3999999999999986
699.974 0.3000000000000007
700.266 0.5832999999999977
700.56 0.36659999999999826
700.853 0.4499999999999993
701.145 0.3000000000000007
701.439 0.5500000000000007
701.731 0.34999999999999787
702.025 0.34999999999999787
702.316 0.34999999999999787
702.61 0.3832999999999984
702.902 0.36659999999999826
703.196 0.4499999999999993
703.487 0.3999999999999986
703.781 0.36659999999999826
704.073 0.3832999999999984
704.367 0.41659999999999897
704.658 0.3332999999999977
704.952 0.36659999999999826
705.244 0.48329999999999984
705.537 0.41659999999999897
705.829 0.3999999999999986
706.122 0.3832999999999984
706.414 0.3832999999999984
706.708 0.48329999999999984
706.999 0.43329999999999913
707.293 0.4665999999999997
