# Created: 2019-11-28 13:05:38.672834
# rshift intensity
76.1738 0.18329999999999913
76.4989 0.23329999999999984
76.824 0.11669999999999803
77.1491 0.1999999999999993
77.4721 0.18329999999999913
77.7972 0.11669999999999803
78.1223 0.06669999999999732
78.4474 0.11669999999999803
78.7724 0.09999999999999787
79.0975 0.09999999999999787
79.4204 0.13329999999999842
79.7454 0.16669999999999874
80.0704 0.13329999999999842
80.3954 0.06669999999999732
80.7204 0.08329999999999771
81.0454 0.16669999999999874
81.3682 0.13329999999999842
81.6931 0.14999999999999858
82.0181 0.06669999999999732
82.343 0.08329999999999771
82.6679 0.14999999999999858
82.9907 0.08329999999999771
83.3156 0.0
83.6405 0.08329999999999771
83.9654 0.13329999999999842
84.2903 0.09999999999999787
84.613 0.09999999999999787
84.9378 0.08329999999999771
85.2626 0.09999999999999787
85.5875 0.01670000000000016
85.9101 0.14999999999999858
86.2349 0.09999999999999787
86.5597 0.14999999999999858
86.8845 0.14999999999999858
87.2093 0.08329999999999771
87.5319 0.14999999999999858
87.8566 0.11669999999999803
88.1814 0.13329999999999842
88.5061 0.1999999999999993
88.8286 0.09999999999999787
89.1533 0.1999999999999993
89.478 0.06669999999999732
89.8027 0.08329999999999771
90.1252 0.09999999999999787
90.4499 0.13329999999999842
90.7745 0.16669999999999874
91.0992 0.13329999999999842
91.4216 0.09999999999999787
91.7462 0.13329999999999842
92.0708 0.08329999999999771
92.3954 0.14999999999999858
92.7179 0.08329999999999771
93.0424 0.23329999999999984
93.367 0.18329999999999913
93.6915 0.14999999999999858
94.0139 0.13329999999999842
94.3384 0.16669999999999874
94.6629 0.21669999999999945
94.9853 0.04999999999999716
95.3098 0.16669999999999874
95.6342 0.14999999999999858
95.9587 0.09999999999999787
96.281 0.06669999999999732
96.6055 0.06669999999999732
96.9299 0.14999999999999858
97.2522 0.11669999999999803
97.5766 0.16669999999999874
97.901 0.09999999999999787
98.2232 0.09999999999999787
98.5476 0.18329999999999913
98.8719 0.21669999999999945
99.1942 0.13329999999999842
99.5185 0.13329999999999842
99.8428 0.04999999999999716
100.165 0.18329999999999913
100.489 0.08329999999999771
100.814 0.08329999999999771
101.136 0.18329999999999913
101.46 0.09999999999999787
101.784 0.13329999999999842
102.106 0.1999999999999993
102.431 0.16669999999999874
102.755 0.14999999999999858
103.077 0.09999999999999787
103.401 0.11669999999999803
103.725 0.08329999999999771
104.047 0.18329999999999913
104.372 0.11669999999999803
104.696 0.11669999999999803
105.018 0.18329999999999913
105.342 0.13329999999999842
105.666 0.18329999999999913
105.988 0.1999999999999993
106.312 0.14999999999999858
106.634 0.09999999999999787
106.958 0.09999999999999787
107.282 0.26670000000000016
107.604 0.14999999999999858
107.928 0.08329999999999771
108.252 0.23329999999999984
108.574 0.09999999999999787
108.898 0.13329999999999842
109.22 0.14999999999999858
109.544 0.14999999999999858
109.868 0.1999999999999993
110.19 0.21669999999999945
110.514 0.13329999999999842
110.836 0.14999999999999858
111.159 0.14999999999999858
111.483 0.23329999999999984
111.805 0.14999999999999858
112.129 0.21669999999999945
112.451 0.14999999999999858
112.775 0.16669999999999874
113.096 0.1999999999999993
113.42 0.11669999999999803
113.744 0.11669999999999803
114.066 0.1999999999999993
114.39 0.13329999999999842
114.711 0.13329999999999842
115.035 0.11669999999999803
115.357 0.08329999999999771
115.681 0.09999999999999787
116.004 0.14999999999999858
116.326 0.16669999999999874
116.65 0.09999999999999787
116.971 0.16669999999999874
117.295 0.13329999999999842
117.617 0.13329999999999842
117.94 0.14999999999999858
118.262 0.11669999999999803
118.586 0.21669999999999945
118.907 0.033299999999997
119.231 0.09999999999999787
119.554 0.26670000000000016
119.876 0.06669999999999732
120.199 0.1999999999999993
120.521 0.06669999999999732
120.845 0.16669999999999874
121.166 0.11669999999999803
121.49 0.11669999999999803
121.811 0.14999999999999858
122.135 0.09999999999999787
122.456 0.16669999999999874
122.78 0.14999999999999858
123.101 0.09999999999999787
123.424 0.14999999999999858
123.746 0.16669999999999874
124.069 0.23329999999999984
124.391 0.18329999999999913
124.714 0.16669999999999874
125.035 0.26670000000000016
125.359 0.13329999999999842
125.68 0.14999999999999858
126.004 0.09999999999999787
126.325 0.25
126.648 0.25
126.97 0.16669999999999874
127.291 0.13329999999999842
127.614 0.21669999999999945
127.935 0.14999999999999858
128.259 0.23329999999999984
128.58 0.11669999999999803
128.903 0.21669999999999945
129.224 0.21669999999999945
129.548 0.21669999999999945
129.869 0.16669999999999874
130.192 0.25
130.513 0.21669999999999945
130.834 0.25
131.158 0.13329999999999842
131.479 0.25
131.802 0.18329999999999913
132.123 0.25
132.446 0.14999999999999858
132.767 0.21669999999999945
133.09 0.23329999999999984
133.411 0.18329999999999913
133.733 0.16669999999999874
134.056 0.21669999999999945
134.377 0.18329999999999913
134.7 0.16669999999999874
135.021 0.08329999999999771
135.342 0.13329999999999842
135.665 0.16669999999999874
135.986 0.1999999999999993
136.309 0.14999999999999858
136.63 0.13329999999999842
136.951 0.11669999999999803
137.274 0.14999999999999858
137.595 0.25
137.918 0.18329999999999913
138.238 0.14999999999999858
138.559 0.1999999999999993
138.882 0.13329999999999842
139.203 0.21669999999999945
139.526 0.18329999999999913
139.847 0.16669999999999874
140.168 0.16669999999999874
140.491 0.09999999999999787
140.811 0.21669999999999945
141.132 0.25
141.455 0.21669999999999945
141.776 0.09999999999999787
142.097 0.23329999999999984
142.419 0.3166999999999973
142.74 0.11669999999999803
143.061 0.16669999999999874
143.384 0.13329999999999842
143.704 0.11669999999999803
144.027 0.1999999999999993
144.348 0.14999999999999858
144.668 0.1999999999999993
144.991 0.11669999999999803
145.312 0.18329999999999913
145.632 0.18329999999999913
145.955 0.09999999999999787
146.276 0.16669999999999874
146.596 0.11669999999999803
146.917 0.16669999999999874
147.24 0.1999999999999993
147.56 0.18329999999999913
147.881 0.25
148.203 0.1999999999999993
148.524 0.18329999999999913
148.844 0.18329999999999913
149.167 0.16669999999999874
149.487 0.18329999999999913
149.808 0.21669999999999945
150.131 0.09999999999999787
150.451 0.21669999999999945
150.771 0.18329999999999913
151.092 0.16669999999999874
151.414 0.23329999999999984
151.735 0.033299999999997
152.055 0.21669999999999945
152.378 0.09999999999999787
152.698 0.1999999999999993
153.018 0.13329999999999842
153.339 0.25
153.661 0.21669999999999945
153.982 0.18329999999999913
154.302 0.1999999999999993
154.622 0.09999999999999787
154.945 0.16669999999999874
155.265 0.14999999999999858
155.585 0.04999999999999716
155.905 0.3166999999999973
156.228 0.13329999999999842
156.548 0.08329999999999771
156.868 0.18329999999999913
157.188 0.1999999999999993
157.511 0.34999999999999787
157.831 0.13329999999999842
158.151 0.3166999999999973
158.471 0.16669999999999874
158.794 0.08329999999999771
159.114 0.13329999999999842
159.434 0.18329999999999913
159.754 0.13329999999999842
160.074 0.21669999999999945
160.396 0.18329999999999913
160.717 0.283299999999997
161.037 0.283299999999997
161.357 0.21669999999999945
161.679 0.14999999999999858
161.999 0.23329999999999984
162.319 0.16669999999999874
162.639 0.14999999999999858
162.959 0.18329999999999913
163.281 0.14999999999999858
163.601 0.033299999999997
163.921 0.21669999999999945
164.241 0.1999999999999993
164.561 0.18329999999999913
164.881 0.21669999999999945
165.203 0.13329999999999842
165.523 0.1999999999999993
165.843 0.13329999999999842
166.163 0.1999999999999993
166.483 0.16669999999999874
166.803 0.13329999999999842
167.125 0.1999999999999993
167.445 0.1999999999999993
167.764 0.1999999999999993
168.084 0.14999999999999858
168.404 0.18329999999999913
168.724 0.11669999999999803
169.046 0.09999999999999787
169.366 0.1999999999999993
169.685 0.1999999999999993
170.005 0.11669999999999803
170.325 0.21669999999999945
170.645 0.16669999999999874
170.964 0.1999999999999993
171.286 0.16669999999999874
171.606 0.25
171.926 0.1999999999999993
172.245 0.11669999999999803
172.565 0.25
172.885 0.1999999999999993
173.204 0.13329999999999842
173.524 0.1999999999999993
173.846 0.04999999999999716
174.166 0.18329999999999913
174.485 0.06669999999999732
174.805 0.26670000000000016
175.124 0.1999999999999993
175.444 0.21669999999999945
175.764 0.283299999999997
176.083 0.06669999999999732
176.403 0.13329999999999842
176.722 0.21669999999999945
177.044 0.14999999999999858
177.363 0.3332999999999977
177.683 0.16669999999999874
178.002 0.09999999999999787
178.322 0.16669999999999874
178.641 0.09999999999999787
178.961 0.23329999999999984
179.28 0.13329999999999842
179.6 0.23329999999999984
179.919 0.16669999999999874
180.239 0.14999999999999858
180.558 0.21669999999999945
180.877 0.16669999999999874
181.197 0.26670000000000016
181.516 0.13329999999999842
181.838 0.1999999999999993
182.157 0.11669999999999803
182.476 0.11669999999999803
182.796 0.14999999999999858
183.115 0.1999999999999993
183.434 0.29999999999999716
183.754 0.25
184.073 0.11669999999999803
184.392 0.16669999999999874
184.712 0.1999999999999993
185.031 0.1999999999999993
185.35 0.29999999999999716
185.669 0.18329999999999913
185.989 0.23329999999999984
186.308 0.11669999999999803
186.627 0.16669999999999874
186.946 0.25
187.265 0.1999999999999993
187.585 0.23329999999999984
187.904 0.1999999999999993
188.223 0.3166999999999973
188.542 0.25
188.861 0.21669999999999945
189.18 0.1999999999999993
189.499 0.09999999999999787
189.818 0.21669999999999945
190.138 0.04999999999999716
190.457 0.18329999999999913
190.776 0.21669999999999945
191.095 0.23329999999999984
191.414 0.23329999999999984
191.733 0.1999999999999993
192.052 0.18329999999999913
192.371 0.1999999999999993
192.69 0.14999999999999858
193.009 0.26670000000000016
193.328 0.18329999999999913
193.647 0.21669999999999945
193.966 0.21669999999999945
194.285 0.08329999999999771
194.602 0.14999999999999858
194.92 0.16669999999999874
195.239 0.1999999999999993
195.558 0.25
195.877 0.14999999999999858
196.196 0.13329999999999842
196.515 0.26670000000000016
196.834 0.18329999999999913
197.153 0.14999999999999858
197.471 0.13329999999999842
197.79 0.283299999999997
198.109 0.14999999999999858
198.428 0.18329999999999913
198.747 0.23329999999999984
199.065 0.16669999999999874
199.382 0.23329999999999984
199.701 0.25
200.02 0.14999999999999858
200.338 0.29999999999999716
200.657 0.09999999999999787
200.976 0.1999999999999993
201.295 0.23329999999999984
201.613 0.3332999999999977
201.932 0.18329999999999913
202.251 0.16669999999999874
202.567 0.21669999999999945
202.886 0.26670000000000016
203.204 0.04999999999999716
203.523 0.1999999999999993
203.842 0.16669999999999874
204.16 0.26670000000000016
204.479 0.1999999999999993
204.797 0.1999999999999993
205.114 0.1999999999999993
205.433 0.14999999999999858
205.751 0.26670000000000016
206.07 0.18329999999999913
206.388 0.26670000000000016
206.707 0.26670000000000016
207.025 0.11669999999999803
207.342 0.14999999999999858
207.66 0.3166999999999973
207.979 0.25
208.297 0.13329999999999842
208.615 0.14999999999999858
208.934 0.23329999999999984
209.25 0.16669999999999874
209.569 0.18329999999999913
209.887 0.283299999999997
210.205 0.25
210.524 0.13329999999999842
210.842 0.21669999999999945
211.158 0.21669999999999945
211.477 0.18329999999999913
211.795 0.21669999999999945
212.113 0.29999999999999716
212.432 0.18329999999999913
212.75 0.25
213.066 0.29999999999999716
213.385 0.13329999999999842
213.703 0.1999999999999993
214.021 0.283299999999997
214.339 0.3166999999999973
214.656 0.25
214.974 0.21669999999999945
215.292 0.26670000000000016
215.61 0.18329999999999913
215.926 0.29999999999999716
216.245 0.1999999999999993
216.563 0.283299999999997
216.881 0.366699999999998
217.199 0.09999999999999787
217.515 0.29999999999999716
217.833 0.29999999999999716
218.151 0.29999999999999716
218.469 0.283299999999997
218.785 0.283299999999997
219.104 0.25
219.422 0.23329999999999984
219.74 0.23329999999999984
220.056 0.25
220.374 0.18329999999999913
220.692 0.21669999999999945
221.01 0.06669999999999732
221.326 0.16669999999999874
221.644 0.13329999999999842
221.962 0.18329999999999913
222.28 0.3832999999999984
222.596 0.16669999999999874
222.914 0.26670000000000016
223.232 0.21669999999999945
223.547 0.16669999999999874
223.865 0.18329999999999913
224.183 0.3332999999999977
224.501 0.25
224.817 0.283299999999997
225.135 0.13329999999999842
225.453 0.23329999999999984
225.768 0.283299999999997
226.086 0.3166999999999973
226.404 0.1999999999999993
226.722 0.21669999999999945
227.038 0.3332999999999977
227.355 0.09999999999999787
227.673 0.3166999999999973
227.989 0.1999999999999993
228.307 0.26670000000000016
228.625 0.26670000000000016
228.94 0.29999999999999716
229.258 0.3166999999999973
229.576 0.29999999999999716
229.891 0.26670000000000016
230.209 0.283299999999997
230.527 0.09999999999999787
230.842 0.3166999999999973
231.16 0.1999999999999993
231.478 0.3166999999999973
231.793 0.18329999999999913
232.111 0.23329999999999984
232.428 0.18329999999999913
232.744 0.18329999999999913
233.062 0.21669999999999945
233.379 0.26670000000000016
233.695 0.21669999999999945
234.012 0.283299999999997
234.33 0.21669999999999945
234.645 0.34999999999999787
234.963 0.3166999999999973
235.278 0.21669999999999945
235.596 0.283299999999997
235.913 0.18329999999999913
236.229 0.11669999999999803
236.546 0.25
236.864 0.26670000000000016
237.179 0.283299999999997
237.497 0.366699999999998
237.812 0.26670000000000016
238.129 0.26670000000000016
238.447 0.1999999999999993
238.762 0.283299999999997
239.08 0.18329999999999913
239.395 0.366699999999998
239.712 0.1999999999999993
240.03 0.21669999999999945
240.345 0.26670000000000016
240.662 0.3332999999999977
240.978 0.29999999999999716
241.295 0.3166999999999973
241.61 0.3166999999999973
241.927 0.29999999999999716
242.245 0.1999999999999993
242.56 0.283299999999997
242.877 0.3832999999999984
243.192 0.29999999999999716
243.51 0.283299999999997
243.825 0.34999999999999787
244.142 0.21669999999999945
244.459 0.21669999999999945
244.774 0.1999999999999993
245.092 0.29999999999999716
245.407 0.13329999999999842
245.724 0.1999999999999993
246.039 0.283299999999997
246.356 0.29999999999999716
246.671 0.21669999999999945
246.988 0.14999999999999858
247.303 0.3332999999999977
247.62 0.34999999999999787
247.938 0.26670000000000016
248.253 0.283299999999997
248.57 0.18329999999999913
248.885 0.34999999999999787
249.202 0.18329999999999913
249.517 0.43329999999999913
249.834 0.25
250.149 0.3166999999999973
250.466 0.29999999999999716
250.781 0.18329999999999913
251.098 0.25
251.412 0.16669999999999874
251.729 0.1999999999999993
252.044 0.366699999999998
252.361 0.283299999999997
252.676 0.29999999999999716
252.993 0.14999999999999858
253.308 0.283299999999997
253.625 0.26670000000000016
253.94 0.26670000000000016
254.256 0.3332999999999977
254.571 0.3166999999999973
254.888 0.1999999999999993
255.203 0.29999999999999716
255.518 0.29999999999999716
255.834 0.25
256.149 0.34999999999999787
256.466 0.23329999999999984
256.781 0.13329999999999842
257.097 0.21669999999999945
257.412 0.1999999999999993
257.729 0.26670000000000016
258.044 0.3832999999999984
258.36 0.283299999999997
258.675 0.26670000000000016
258.99 0.283299999999997
259.306 0.283299999999997
259.621 0.23329999999999984
259.938 0.18329999999999913
260.252 0.21669999999999945
260.569 0.26670000000000016
260.883 0.25
261.198 0.25
261.515 0.34999999999999787
261.829 0.16669999999999874
262.146 0.16669999999999874
262.46 0.14999999999999858
262.775 0.26670000000000016
263.091 0.21669999999999945
263.406 0.3166999999999973
263.723 0.26670000000000016
264.037 0.18329999999999913
264.354 0.1999999999999993
264.668 0.29999999999999716
264.982 0.25
265.299 0.18329999999999913
265.613 0.23329999999999984
265.928 0.23329999999999984
266.244 0.29999999999999716
266.559 0.26670000000000016
266.875 0.34999999999999787
267.189 0.21669999999999945
267.504 0.23329999999999984
267.82 0.26670000000000016
268.134 0.13329999999999842
268.449 0.29999999999999716
268.765 0.29999999999999716
269.079 0.283299999999997
269.394 0.23329999999999984
269.71 0.1999999999999993
270.024 0.16669999999999874
270.341 0.23345681131120344
270.655 0.23476565215549527
270.969 0.2291744783613403
271.286 0.2358509836734406
271.6 0.2394117676721308
271.914 0.23123616603720265
272.23 0.23520367082987903
272.544 0.29999999999999716
272.859 0.18329999999999913
273.175 0.3166999999999973
273.489 0.18329999999999913
273.803 0.16669999999999874
274.119 0.3166999999999973
274.433 0.3832999999999984
274.747 0.3332999999999977
275.062 0.16669999999999874
275.378 0.1999999999999993
275.692 0.3332999999999977
276.006 0.3332999999999977
276.322 0.3332999999999977
276.636 0.25
276.95 0.21669999999999945
277.266 0.16669999999999874
277.58 0.21669999999999945
277.894 0.3166999999999973
278.208 0.3332999999999977
278.524 0.366699999999998
278.838 0.283299999999997
279.152 0.366699999999998
279.468 0.23329999999999984
279.782 0.3166999999999973
280.096 0.25
280.41 0.26670000000000016
280.726 0.26670000000000016
281.04 0.283299999999997
281.354 0.23329999999999984
281.668 0.18329999999999913
281.983 0.3166999999999973
282.297 0.283299999999997
282.611 0.16669999999999874
282.925 0.283299999999997
283.241 0.21669999999999945
283.555 0.283299999999997
283.868 0.21669999999999945
284.182 0.21669999999999945
284.498 0.25
284.812 0.3999999999999986
285.126 0.16669999999999874
285.439 0.25
285.753 0.23329999999999984
286.069 0.3332999999999977
286.383 0.29999999999999716
286.696 0.25
287.01 0.3166999999999973
287.326 0.283299999999997
287.639 0.23329999999999984
287.953 0.21669999999999945
288.267 0.13329999999999842
288.58 0.366699999999998
288.896 0.1999999999999993
289.21 0.3166999999999973
289.523 0.29999999999999716
289.837 0.26670000000000016
290.15 0.3332999999999977
290.466 0.25
290.78 0.29999999999999716
291.093 0.23329999999999984
291.407 0.3332999999999977
291.72 0.21669999999999945
292.034 0.14999999999999858
292.349 0.29999999999999716
292.663 0.18329999999999913
292.976 0.29999999999999716
293.29 0.283299999999997
293.603 0.29999999999999716
293.917 0.29999999999999716
294.232 0.21669999999999945
294.546 0.25
294.859 0.29999999999999716
295.172 0.25
295.486 0.43329999999999913
295.799 0.29999999999999716
296.113 0.41669999999999874
296.428 0.29999999999999716
296.741 0.3166999999999973
297.055 0.3332999999999977
297.368 0.3332999999999977
297.681 0.34999999999999787
297.995 0.283299999999997
298.308 0.283299999999997
298.621 0.29999999999999716
298.937 0.3832999999999984
299.25 0.3166999999999973
299.563 0.3832999999999984
299.876 0.25
300.19 0.13329999999999842
300.503 0.3166999999999973
300.816 0.21669999999999945
301.129 0.366699999999998
301.442 0.1999999999999993
301.756 0.3332999999999977
302.071 0.25
302.384 0.23329999999999984
302.697 0.26670000000000016
303.01 0.1999999999999993
303.323 0.3166999999999973
303.637 0.16669999999999874
303.95 0.26670000000000016
304.263 0.283299999999997
304.576 0.26670000000000016
304.889 0.1999999999999993
305.202 0.3332999999999977
305.515 0.3332999999999977
305.828 0.25
306.141 0.43329999999999913
306.456 0.25
306.769 0.21669999999999945
307.082 0.366699999999998
307.395 0.283299999999997
307.708 0.1999999999999993
308.021 0.3832999999999984
308.334 0.25
308.647 0.3332999999999977
308.96 0.1999999999999993
309.273 0.23329999999999984
309.586 0.23329999999999984
309.899 0.3166999999999973
310.212 0.26670000000000016
310.525 0.34999999999999787
310.838 0.16669999999999874
311.15 0.23329999999999984
311.463 0.25
311.776 0.26670000000000016
312.089 0.21669999999999945
312.402 0.3166999999999973
312.715 0.3166999999999973
313.027 0.3166999999999973
313.34 0.25
313.653 0.3332999999999977
313.966 0.283299999999997
314.278 0.3999999999999986
314.591 0.16669999999999874
314.904 0.25
315.217 0.21669999999999945
315.529 0.283299999999997
315.842 0.283299999999997
316.155 0.283299999999997
316.467 0.366699999999998
316.78 0.26670000000000016
317.093 0.29999999999999716
317.405 0.41669999999999874
317.718 0.3332999999999977
318.031 0.3166999999999973
318.343 0.283299999999997
318.656 0.26670000000000016
318.969 0.1999999999999993
319.281 0.29999999999999716
319.592 0.3332999999999977
319.904 0.3999999999999986
320.217 0.21669999999999945
320.529 0.26670000000000016
320.842 0.26670000000000016
321.154 0.25
321.467 0.21669999999999945
321.779 0.25
322.092 0.23329999999999984
322.404 0.3166999999999973
322.717 0.26670000000000016
323.029 0.23329999999999984
323.342 0.29999999999999716
323.654 0.3832999999999984
323.965 0.34999999999999787
324.277 0.283299999999997
324.589 0.3166999999999973
324.902 0.21669999999999945
325.214 0.43329999999999913
325.527 0.26670000000000016
325.839 0.21669999999999945
326.151 0.43329999999999913
326.464 0.3832999999999984
326.776 0.16669999999999874
327.086 0.34999999999999787
327.399 0.43329999999999913
327.711 0.21669999999999945
328.023 0.283299999999997
328.335 0.3166999999999973
328.648 0.34999999999999787
328.96 0.29999999999999716
329.27 0.366699999999998
329.582 0.3832999999999984
329.895 0.41669999999999874
330.207 0.3999999999999986
330.519 0.34999999999999787
330.831 0.3166999999999973
331.143 0.3832999999999984
331.454 0.29999999999999716
331.766 0.46669999999999945
332.078 0.3832999999999984
332.39 0.3999999999999986
332.702 0.366699999999998
333.014 0.26670000000000016
333.326 0.3332999999999977
333.636 0.283299999999997
333.948 0.366699999999998
334.261 0.29999999999999716
334.573 0.3999999999999986
334.885 0.283299999999997
335.195 0.4499999999999993
335.507 0.34999999999999787
335.819 0.3999999999999986
336.131 0.3166999999999973
336.443 0.3166999999999973
336.753 0.25
337.065 0.26670000000000016
337.377 0.25
337.689 0.283299999999997
338.001 0.3999999999999986
338.31 0.3332999999999977
338.622 0.29999999999999716
338.934 0.3166999999999973
339.246 0.3166999999999973
339.558 0.3332999999999977
339.868 0.366699999999998
340.18 0.29999999999999716
340.492 0.26670000000000016
340.804 0.3332999999999977
341.113 0.4499999999999993
341.425 0.43329999999999913
341.737 0.366699999999998
342.049 0.26670000000000016
342.361 0.26670000000000016
342.67 0.3332999999999977
342.982 0.366699999999998
343.294 0.3999999999999986
343.606 0.26670000000000016
343.915 0.3332999999999977
344.227 0.4499999999999993
344.539 0.283299999999997
344.849 0.41669999999999874
345.16 0.3332999999999977
345.472 0.46669999999999945
345.784 0.4499999999999993
346.093 0.3999999999999986
346.405 0.366699999999998
346.717 0.3999999999999986
347.028 0.29999999999999716
347.338 0.3999999999999986
347.649 0.3832999999999984
347.961 0.3832999999999984
348.271 0.48329999999999984
348.582 0.3166999999999973
348.894 0.366699999999998
349.205 0.283299999999997
349.515 0.3999999999999986
349.826 0.29999999999999716
350.138 0.26670000000000016
350.447 0.3332999999999977
350.759 0.26670000000000016
351.07 0.29999999999999716
351.38 0.16669999999999874
351.691 0.3999999999999986
352.003 0.26670000000000016
352.312 0.283299999999997
352.624 0.3999999999999986
352.935 0.366699999999998
353.245 0.3166999999999973
353.556 0.46669999999999945
353.867 0.21669999999999945
354.177 0.3166999999999973
354.488 0.3332999999999977
354.799 0.43329999999999913
355.109 0.3832999999999984
355.42 0.41669999999999874
355.732 0.29999999999999716
356.041 0.3999999999999986
356.352 0.43329999999999913
356.663 0.3166999999999973
356.973 0.3999999999999986
357.284 0.3832999999999984
357.593 0.23329999999999984
357.905 0.3999999999999986
358.216 0.5167000000000002
358.525 0.23329999999999984
358.836 0.3832999999999984
359.147 0.366699999999998
359.457 0.29999999999999716
359.768 0.3999999999999986
360.077 0.3999999999999986
360.388 0.366699999999998
360.699 0.366699999999998
361.008 0.3332999999999977
361.32 0.16669999999999874
361.629 0.29999999999999716
361.94 0.3832999999999984
362.251 0.3332999999999977
362.56 0.26670000000000016
362.871 0.366699999999998
363.18 0.34999999999999787
363.491 0.41669999999999874
363.8 0.3832999999999984
364.111 0.26670000000000016
364.422 0.29999999999999716
364.731 0.3332999999999977
365.042 0.43329999999999913
365.351 0.1999999999999993
365.662 0.366699999999998
365.971 0.533299999999997
366.282 0.34999999999999787
366.593 0.4499999999999993
366.902 0.3832999999999984
367.213 0.41669999999999874
367.522 0.4499999999999993
367.833 0.366699999999998
368.142 0.34999999999999787
368.453 0.3166999999999973
368.762 0.41669999999999874
369.073 0.34999999999999787
369.381 0.366699999999998
369.692 0.3999999999999986
370.001 0.34999999999999787
370.312 0.3999999999999986
370.623 0.4499999999999993
370.932 0.26670000000000016
371.242 0.3166999999999973
371.551 0.3832999999999984
371.862 0.4499999999999993
372.171 0.34999999999999787
372.482 0.41669999999999874
372.79 0.366699999999998
373.101 0.25
373.41 0.3999999999999986
373.721 0.23329999999999984
374.029 0.29999999999999716
374.34 0.3999999999999986
374.649 0.18329999999999913
374.959 0.29999999999999716
375.268 0.3166999999999973
375.577 0.3999999999999986
375.887 0.283299999999997
376.196 0.3999999999999986
376.506 0.3832999999999984
376.815 0.25
377.126 0.5499999999999972
377.434 0.3166999999999973
377.745 0.34999999999999787
378.053 0.29999999999999716
378.364 0.34999999999999787
378.672 0.3999999999999986
378.983 0.23329999999999984
379.292 0.366699999999998
379.6 0.3832999999999984
379.911 0.29999999999999716
380.219 0.41669999999999874
380.53 0.366699999999998
380.838 0.3166999999999973
381.148 0.366699999999998
381.457 0.43329999999999913
381.767 0.366699999999998
382.076 0.29999999999999716
382.384 0.48329999999999984
382.695 0.34999999999999787
383.003 0.41669999999999874
383.313 0.3166999999999973
383.622 0.43329999999999913
383.93 0.3166999999999973
384.24 0.5
384.549 0.21669999999999945
384.859 0.34999999999999787
385.167 0.366699999999998
385.476 0.46669999999999945
385.786 0.3332999999999977
386.094 0.366699999999998
386.405 0.3332999999999977
386.713 0.3332999999999977
387.021 0.3166999999999973
387.331 0.34999999999999787
387.64 0.3332999999999977
387.948 0.3999999999999986
388.258 0.41669999999999874
388.566 0.48329999999999984
388.877 0.48329999999999984
389.185 0.41669999999999874
389.493 0.3166999999999973
389.803 0.48329999999999984
390.111 0.283299999999997
390.419 0.3332999999999977
390.729 0.366699999999998
391.038 0.43329999999999913
391.346 0.4499999999999993
391.656 0.43329999999999913
391.964 0.43329999999999913
392.272 0.41669999999999874
392.582 0.366699999999998
392.89 0.3332999999999977
393.198 0.5666999999999973
393.508 0.29999999999999716
393.816 0.3832999999999984
394.124 0.3999999999999986
394.434 0.283299999999997
394.742 0.3332999999999977
395.05 0.41669999999999874
395.36 0.3999999999999986
395.668 0.4499999999999993
395.976 0.3832999999999984
396.286 0.43329999999999913
396.594 0.26670000000000016
396.902 0.3832999999999984
397.21 0.3999999999999986
397.52 0.41669999999999874
397.828 0.34999999999999787
398.135 0.3832999999999984
398.445 0.3832999999999984
398.753 0.29999999999999716
399.061 0.4499999999999993
399.369 0.46669999999999945
399.679 0.29999999999999716
399.987 0.41669999999999874
400.294 0.366699999999998
400.604 0.3832999999999984
400.912 0.366699999999998
401.22 0.3832999999999984
401.527 0.46669999999999945
401.837 0.18329999999999913
402.145 0.46669999999999945
402.453 0.5
402.76 0.34999999999999787
403.07 0.4499999999999993
403.378 0.3332999999999977
403.686 0.41669999999999874
403.993 0.3832999999999984
404.303 0.41669999999999874
404.611 0.4499999999999993
404.918 0.3999999999999986
405.226 0.4499999999999993
405.533 0.3999999999999986
405.843 0.4499999999999993
406.151 0.366699999999998
406.458 0.3999999999999986
406.766 0.4499999999999993
407.076 0.366699999999998
407.383 0.5167000000000002
407.691 0.43329999999999913
407.998 0.3332999999999977
408.306 0.5167000000000002
408.615 0.5499999999999972
408.923 0.5167000000000002
409.23 0.3999999999999986
409.538 0.366699999999998
409.845 0.46669999999999945
410.153 0.5
410.462 0.5
410.77 0.6999999999999993
411.077 0.48329999999999984
411.384 0.48329999999999984
411.692 0.41669999999999874
412.001 0.43329999999999913
412.309 0.533299999999997
412.616 0.5499999999999972
412.923 0.5832999999999977
413.231 0.5167000000000002
413.538 0.34999999999999787
413.845 0.5832999999999977
414.155 0.533299999999997
414.462 0.6332999999999984
414.769 0.6832999999999991
415.077 0.616699999999998
415.384 0.616699999999998
415.691 0.8499999999999979
415.999 0.6666999999999987
416.308 0.7166999999999994
416.615 0.6999999999999993
416.922 0.75
417.23 0.7332999999999998
417.537 0.9499999999999993
417.844 0.7332999999999998
418.151 0.9166999999999987
418.458 0.866699999999998
418.768 0.6666999999999987
419.075 0.8832999999999984
419.382 0.866699999999998
419.689 0.9166999999999987
419.996 1.0167000000000002
420.303 0.9666999999999994
420.61 0.9332999999999991
420.918 0.783299999999997
421.225 1.1499999999999986
421.532 1.1332999999999984
421.841 1.0499999999999972
422.148 1.4332999999999991
422.455 1.0666999999999973
422.762 1.25
423.069 1.2332999999999998
423.376 1.0666999999999973
423.683 1.3499999999999979
423.99 1.0499999999999972
424.297 1.283299999999997
424.604 1.2166999999999994
424.911 1.116699999999998
425.218 1.1999999999999993
425.525 1.1666999999999987
425.832 1.1499999999999986
426.139 0.9332999999999991
426.446 1.0666999999999973
426.753 1.1332999999999984
427.061 1.033299999999997
427.368 0.7999999999999972
427.675 1.0
427.982 1.033299999999997
428.289 1.1666999999999987
428.596 0.9332999999999991
428.903 0.783299999999997
429.209 0.9332999999999991
429.516 0.8332999999999977
429.823 0.7999999999999972
430.13 0.783299999999997
430.437 0.75
430.743 0.8499999999999979
431.05 0.7332999999999998
431.357 0.7999999999999972
431.664 0.6666999999999987
431.97 0.75
432.277 0.75
432.584 0.6499999999999986
432.891 0.6666999999999987
433.197 0.7667000000000002
433.504 0.5832999999999977
433.811 0.48329999999999984
434.117 0.616699999999998
434.424 0.5832999999999977
434.731 0.616699999999998
435.037 0.533299999999997
435.344 0.5666999999999973
435.65 0.5499999999999972
435.957 0.5
436.262 0.5167000000000002
436.568 0.48329999999999984
436.875 0.533299999999997
437.181 0.6666999999999987
437.488 0.48329999999999984
437.794 0.5666999999999973
438.101 0.3999999999999986
438.407 0.5
438.714 0.46669999999999945
439.02 0.616699999999998
439.327 0.5499999999999972
439.633 0.43329999999999913
439.94 0.5
440.246 0.43329999999999913
440.553 0.43329999999999913
440.859 0.5499999999999972
441.163 0.3832999999999984
441.47 0.5167000000000002
441.776 0.616699999999998
442.083 0.5499999999999972
442.389 0.5167000000000002
442.695 0.5666999999999973
443.002 0.46669999999999945
443.308 0.46669999999999945
443.614 0.5167000000000002
443.921 0.41669999999999874
444.225 0.4499999999999993
444.531 0.366699999999998
444.838 0.5832999999999977
445.144 0.533299999999997
445.45 0.46669999999999945
445.757 0.5499999999999972
446.063 0.3832999999999984
446.369 0.5
446.675 0.4499999999999993
446.979 0.5999999999999979
447.286 0.41669999999999874
447.592 0.6332999999999984
447.898 0.5
448.204 0.5
448.51 0.533299999999997
448.817 0.5167000000000002
449.121 0.5
449.427 0.5
449.733 0.3999999999999986
450.039 0.41669999999999874
450.345 0.48329999999999984
450.651 0.5666999999999973
450.955 0.48329999999999984
451.261 0.6332999999999984
451.568 0.533299999999997
451.874 0.5167000000000002
452.18 0.43329999999999913
452.486 0.616699999999998
452.79 0.41669999999999874
453.096 0.533299999999997
453.402 0.46669999999999945
453.708 0.366699999999998
454.014 0.6832999999999991
454.318 0.41669999999999874
454.624 0.5666999999999973
454.93 0.5
455.236 0.5666999999999973
455.541 0.41669999999999874
455.845 0.46669999999999945
456.151 0.43329999999999913
456.457 0.34999999999999787
456.763 0.5167000000000002
457.067 0.366699999999998
457.373 0.43329999999999913
457.679 0.4499999999999993
457.985 0.366699999999998
458.29 0.533299999999997
458.594 0.366699999999998
458.9 0.533299999999997
459.206 0.5666999999999973
459.512 0.46669999999999945
459.815 0.43329999999999913
460.121 0.48329999999999984
460.427 0.34999999999999787
460.733 0.5
461.036 0.41669999999999874
461.342 0.533299999999997
461.648 0.366699999999998
461.954 0.34999999999999787
462.257 0.5167000000000002
462.563 0.46669999999999945
462.869 0.5
463.172 0.3832999999999984
463.478 0.366699999999998
463.784 0.366699999999998
464.089 0.3999999999999986
464.393 0.5167000000000002
464.699 0.4499999999999993
465.004 0.5499999999999972
465.308 0.43329999999999913
465.613 0.48329999999999984
465.919 0.41669999999999874
466.225 0.3332999999999977
466.528 0.4499999999999993
466.834 0.3832999999999984
467.139 0.5499999999999972
467.443 0.3832999999999984
467.748 0.533299999999997
468.054 0.5167000000000002
468.357 0.3999999999999986
468.663 0.3832999999999984
468.968 0.48329999999999984
469.272 0.5
469.577 0.5999999999999979
469.883 0.48329999999999984
470.186 0.48329999999999984
470.492 0.46669999999999945
470.797 0.3832999999999984
471.1 0.5167000000000002
471.406 0.41669999999999874
471.711 0.4499999999999993
472.014 0.4499999999999993
472.32 0.5499999999999972
472.625 0.3999999999999986
472.929 0.3999999999999986
473.234 0.5167000000000002
473.539 0.5499999999999972
473.843 0.5167000000000002
474.148 0.5666999999999973
474.451 0.5
474.756 0.43329999999999913
475.062 0.46669999999999945
475.365 0.46669999999999945
475.67 0.5832999999999977
475.973 0.43329999999999913
476.279 0.5
476.584 0.6999999999999993
476.887 0.6666999999999987
477.192 0.9166999999999987
477.498 0.9666999999999994
477.801 0.8499999999999979
478.106 0.8499999999999979
478.409 1.033299999999997
478.714 0.866699999999998
479.017 0.8332999999999977
479.322 0.9332999999999991
479.628 1.033299999999997
479.931 0.9332999999999991
480.236 0.8999999999999986
480.539 0.8999999999999986
480.844 1.033299999999997
481.147 1.0499999999999972
481.452 0.9832999999999998
481.757 0.8499999999999979
482.06 0.9332999999999991
482.365 0.8499999999999979
482.668 0.866699999999998
482.973 0.9666999999999994
483.276 0.783299999999997
483.581 0.8166999999999973
483.884 0.7667000000000002
484.189 0.7667000000000002
484.494 0.616699999999998
484.797 0.5999999999999979
485.102 0.5666999999999973
485.405 0.6666999999999987
485.71 0.6332999999999984
486.013 0.533299999999997
486.318 0.533299999999997
486.621 0.5499999999999972
486.925 0.5666999999999973
487.228 0.46669999999999945
487.533 0.48329999999999984
487.836 0.5832999999999977
488.141 0.5167000000000002
488.444 0.3832999999999984
488.748 0.5
489.051 0.41669999999999874
489.356 0.5167000000000002
489.659 0.48329999999999984
489.964 0.3332999999999977
490.266 0.5
490.571 0.43329999999999913
490.874 0.4499999999999993
491.179 0.41669999999999874
491.481 0.4499999999999993
491.786 0.34999999999999787
492.089 0.43329999999999913
492.393 0.43329999999999913
492.696 0.41669999999999874
493.001 0.41669999999999874
493.303 0.43329999999999913
493.606 0.34999999999999787
493.911 0.5499999999999972
494.213 0.48329999999999984
494.518 0.34999999999999787
494.821 0.3999999999999986
495.125 0.41669999999999874
495.428 0.34999999999999787
495.732 0.34999999999999787
496.035 0.4499999999999993
496.337 0.25
496.642 0.48329999999999984
496.945 0.46669999999999945
497.249 0.48329999999999984
497.552 0.5167000000000002
497.856 0.43329999999999913
498.159 0.366699999999998
498.461 0.5167000000000002
498.766 0.4499999999999993
499.068 0.43329999999999913
499.372 0.48329999999999984
499.675 0.25
499.977 0.48329999999999984
500.282 0.43329999999999913
500.584 0.3332999999999977
500.889 0.3832999999999984
501.191 0.283299999999997
501.493 0.533299999999997
501.798 0.3332999999999977
502.1 0.5167000000000002
502.402 0.5666999999999973
502.707 0.533299999999997
503.009 0.34999999999999787
503.314 0.5
503.616 0.3332999999999977
503.918 0.43329999999999913
504.222 0.5167000000000002
504.525 0.3999999999999986
504.827 0.48329999999999984
505.131 0.43329999999999913
505.433 0.43329999999999913
505.736 0.533299999999997
506.04 0.43329999999999913
506.342 0.366699999999998
506.646 0.46669999999999945
506.949 0.3832999999999984
507.251 0.41669999999999874
507.555 0.43329999999999913
507.857 0.3166999999999973
508.159 0.46669999999999945
508.461 0.41669999999999874
508.766 0.3832999999999984
509.068 0.41669999999999874
509.37 0.43329999999999913
509.674 0.366699999999998
509.976 0.3166999999999973
510.278 0.43329999999999913
510.582 0.533299999999997
510.884 0.4499999999999993
511.186 0.3832999999999984
511.49 0.3832999999999984
511.792 0.3999999999999986
512.094 0.34999999999999787
512.396 0.29999999999999716
512.701 0.3999999999999986
513.003 0.4499999999999993
513.305 0.4499999999999993
513.609 0.3166999999999973
513.91 0.4499999999999993
514.212 0.41669999999999874
514.514 0.366699999999998
514.818 0.3166999999999973
515.12 0.48329999999999984
515.422 0.366699999999998
515.724 0.366699999999998
516.028 0.3166999999999973
516.33 0.5
516.632 0.4499999999999993
516.934 0.48329999999999984
517.237 0.4499999999999993
517.539 0.366699999999998
517.841 0.5167000000000002
518.143 0.34999999999999787
518.447 0.48329999999999984
518.749 0.46669999999999945
519.05 0.366699999999998
519.352 0.4499999999999993
519.656 0.3332999999999977
519.958 0.5499999999999972
520.26 0.5167000000000002
520.561 0.4499999999999993
520.863 0.5
521.167 0.533299999999997
521.468 0.3832999999999984
521.77 0.41669999999999874
522.072 0.366699999999998
522.376 0.5499999999999972
522.677 0.46669999999999945
522.979 0.4499999999999993
523.281 0.3832999999999984
523.582 0.5499999999999972
523.884 0.3999999999999986
524.187 0.5666999999999973
524.489 0.533299999999997
524.791 0.4499999999999993
525.092 0.41669999999999874
525.394 0.46669999999999945
525.697 0.5167000000000002
525.999 0.5
526.301 0.34999999999999787
526.602 0.5
526.904 0.5167000000000002
527.205 0.3332999999999977
527.507 0.533299999999997
527.81 0.4499999999999993
528.112 0.5167000000000002
528.413 0.3999999999999986
528.715 0.6666999999999987
529.016 0.43329999999999913
529.318 0.5
529.619 0.5832999999999977
529.922 0.46669999999999945
530.224 0.3999999999999986
530.525 0.4499999999999993
530.827 0.3332999999999977
531.128 0.5499999999999972
531.429 0.41669999999999874
531.731 0.533299999999997
532.032 0.46669999999999945
532.336 0.366699999999998
532.637 0.43329999999999913
532.938 0.533299999999997
533.24 0.533299999999997
533.541 0.3832999999999984
533.842 0.3999999999999986
534.143 0.5999999999999979
534.445 0.3832999999999984
534.746 0.48329999999999984
535.047 0.5666999999999973
535.351 0.3832999999999984
535.652 0.5
535.953 0.366699999999998
536.254 0.366699999999998
536.555 0.3166999999999973
536.857 0.34999999999999787
537.158 0.46669999999999945
537.459 0.5167000000000002
537.76 0.5499999999999972
538.061 0.48329999999999984
538.362 0.3999999999999986
538.664 0.5167000000000002
538.965 0.3999999999999986
539.266 0.5
539.567 0.46669999999999945
539.868 0.46669999999999945
540.169 0.43329999999999913
540.472 0.3832999999999984
540.773 0.46669999999999945
541.074 0.46669999999999945
541.375 0.29999999999999716
541.677 0.46669999999999945
541.978 0.3999999999999986
542.279 0.48329999999999984
542.58 0.4499999999999993
542.881 0.48329999999999984
543.182 0.5167000000000002
543.483 0.41669999999999874
543.784 0.5
544.085 0.48329999999999984
544.385 0.48329999999999984
544.686 0.46669999999999945
544.987 0.41669999999999874
545.288 0.366699999999998
545.589 0.48329999999999984
545.89 0.5167000000000002
546.191 0.3999999999999986
546.492 0.41669999999999874
546.793 0.366699999999998
547.094 0.533299999999997
547.394 0.46669999999999945
547.695 0.5999999999999979
547.996 0.3832999999999984
548.297 0.7332999999999998
548.596 0.3999999999999986
548.897 0.616699999999998
549.197 0.5499999999999972
549.498 0.3999999999999986
549.799 0.41669999999999874
550.1 0.5832999999999977
550.4 0.5999999999999979
550.701 0.5167000000000002
551.002 0.5167000000000002
551.303 0.5999999999999979
551.603 0.4499999999999993
551.904 0.5999999999999979
552.205 0.5666999999999973
552.505 0.5
552.806 0.533299999999997
553.107 0.7332999999999998
553.407 0.6666999999999987
553.706 0.5167000000000002
554.007 0.46669999999999945
554.307 0.5499999999999972
554.608 0.6832999999999991
554.909 0.6832999999999991
555.209 0.6999999999999993
555.51 0.75
555.81 0.5499999999999972
556.111 0.6666999999999987
556.411 0.5499999999999972
556.71 0.5832999999999977
557.01 0.6666999999999987
557.311 0.5832999999999977
557.612 0.616699999999998
557.912 0.6666999999999987
558.213 0.6332999999999984
558.513 0.6332999999999984
558.813 0.533299999999997
559.112 0.616699999999998
559.412 0.6499999999999986
559.713 0.41669999999999874
560.013 0.5832999999999977
560.314 0.6332999999999984
560.614 0.5167000000000002
560.914 0.616699999999998
561.213 0.5999999999999979
561.513 0.533299999999997
561.814 0.48329999999999984
562.114 0.5499999999999972
562.414 0.5832999999999977
562.715 0.5167000000000002
563.015 0.5666999999999973
563.313 0.6999999999999993
563.614 0.5666999999999973
563.914 0.6332999999999984
564.214 0.533299999999997
564.515 0.5499999999999972
564.813 0.5832999999999977
565.113 0.5
565.413 0.5
565.714 0.46669999999999945
566.014 0.3832999999999984
566.312 0.3332999999999977
566.612 0.6666999999999987
566.912 0.46669999999999945
567.213 0.43329999999999913
567.513 0.5666999999999973
567.811 0.43329999999999913
568.111 0.3832999999999984
568.411 0.46669999999999945
568.712 0.4499999999999993
569.012 0.5499999999999972
569.31 0.29999999999999716
569.61 0.3832999999999984
569.91 0.6332999999999984
570.21 0.46669999999999945
570.508 0.616699999999998
570.808 0.5167000000000002
571.108 0.5167000000000002
571.408 0.43329999999999913
571.706 0.3832999999999984
572.006 0.4499999999999993
572.306 0.3999999999999986
572.607 0.5832999999999977
572.904 0.46669999999999945
573.204 0.4499999999999993
573.505 0.5
573.805 0.4499999999999993
574.102 0.5666999999999973
574.402 0.41669999999999874
574.702 0.3332999999999977
575.002 0.5
575.3 0.3999999999999986
575.6 0.46669999999999945
575.9 0.5
576.198 0.43329999999999913
576.498 0.5499999999999972
576.798 0.5167000000000002
577.098 0.46669999999999945
577.395 0.46669999999999945
577.695 0.34999999999999787
577.995 0.533299999999997
578.293 0.366699999999998
578.593 0.3999999999999986
578.893 0.4499999999999993
579.19 0.41669999999999874
579.49 0.366699999999998
579.79 0.3832999999999984
580.088 0.3999999999999986
580.387 0.48329999999999984
580.687 0.43329999999999913
580.985 0.533299999999997
581.285 0.43329999999999913
581.584 0.4499999999999993
581.882 0.3832999999999984
582.182 0.5832999999999977
582.482 0.43329999999999913
582.779 0.48329999999999984
583.079 0.5
583.378 0.46669999999999945
583.676 0.533299999999997
583.976 0.5666999999999973
584.275 0.43329999999999913
584.573 0.43329999999999913
584.873 0.46669999999999945
585.17 0.533299999999997
585.47 0.4499999999999993
585.769 0.48329999999999984
586.067 0.4499999999999993
586.367 0.6666999999999987
586.666 0.48329999999999984
586.964 0.46669999999999945
587.263 0.366699999999998
587.561 0.43329999999999913
587.86 0.41669999999999874
588.16 0.3999999999999986
588.457 0.5167000000000002
588.757 0.43329999999999913
589.054 0.29999999999999716
589.354 0.43329999999999913
589.653 0.5499999999999972
589.951 0.43329999999999913
590.25 0.5167000000000002
590.547 0.616699999999998
590.847 0.46669999999999945
591.144 0.4499999999999993
591.444 0.43329999999999913
591.743 0.4499999999999993
592.04 0.43329999999999913
592.34 0.366699999999998
592.637 0.533299999999997
592.936 0.43329999999999913
593.234 0.5167000000000002
593.533 0.5999999999999979
593.832 0.43329999999999913
594.13 0.4499999999999993
594.429 0.46669999999999945
594.726 0.48329999999999984
595.026 0.3999999999999986
595.323 0.5
595.622 0.5999999999999979
595.919 0.48329999999999984
596.219 0.366699999999998
596.516 0.43329999999999913
596.815 0.3332999999999977
597.112 0.46669999999999945
597.411 0.5832999999999977
597.709 0.48329999999999984
598.008 0.46669999999999945
598.305 0.5832999999999977
598.604 0.43329999999999913
598.901 0.3166999999999973
599.2 0.34999999999999787
599.497 0.46669999999999945
599.797 0.5
600.094 0.5666999999999973
600.393 0.366699999999998
600.69 0.5167000000000002
600.989 0.46669999999999945
601.286 0.5832999999999977
601.585 0.5
601.882 0.48329999999999984
602.181 0.5499999999999972
602.478 0.3832999999999984
602.777 0.43329999999999913
603.074 0.5
603.373 0.5167000000000002
603.67 0.5167000000000002
603.969 0.533299999999997
604.266 0.5666999999999973
604.563 0.5499999999999972
604.862 0.366699999999998
605.159 0.48329999999999984
605.458 0.48329999999999984
605.755 0.6499999999999986
606.054 0.5832999999999977
606.351 0.48329999999999984
606.65 0.616699999999998
606.946 0.5832999999999977
607.243 0.616699999999998
607.542 0.4499999999999993
607.839 0.5832999999999977
608.138 0.6499999999999986
608.435 0.616699999999998
608.732 0.6999999999999993
609.03 0.3832999999999984
609.327 0.3999999999999986
609.626 0.5167000000000002
609.923 0.533299999999997
610.22 0.4499999999999993
610.518 0.533299999999997
610.815 0.5499999999999972
611.114 0.5832999999999977
611.411 0.5999999999999979
611.707 0.5832999999999977
612.006 0.5167000000000002
612.303 0.6332999999999984
612.601 0.7166999999999994
612.898 0.533299999999997
613.195 0.6999999999999993
613.493 0.6999999999999993
613.79 0.533299999999997
614.087 0.5832999999999977
614.385 0.7332999999999998
614.682 0.6832999999999991
614.979 0.5832999999999977
615.277 0.6832999999999991
615.574 0.5666999999999973
615.87 0.866699999999998
616.169 0.616699999999998
616.466 0.5
616.764 0.6332999999999984
617.061 0.6832999999999991
617.357 0.616699999999998
617.656 0.5832999999999977
617.952 0.3832999999999984
618.249 0.46669999999999945
618.545 0.783299999999997
618.844 0.5167000000000002
619.14 0.616699999999998
619.437 0.616699999999998
619.735 0.3999999999999986
620.032 0.4499999999999993
620.328 0.4499999999999993
620.626 0.5
620.923 0.4499999999999993
621.219 0.6832999999999991
621.518 0.7166999999999994
621.814 0.5832999999999977
622.11 0.5666999999999973
622.407 0.5167000000000002
622.705 0.41669999999999874
623.002 0.43329999999999913
623.298 0.616699999999998
623.594 0.5832999999999977
623.893 0.48329999999999984
624.189 0.4499999999999993
624.485 0.5167000000000002
624.784 0.4499999999999993
625.08 0.46669999999999945
625.376 0.5666999999999973
625.672 0.43329999999999913
625.971 0.5499999999999972
626.267 0.46669999999999945
626.563 0.533299999999997
626.859 0.4499999999999993
627.158 0.5499999999999972
627.454 0.5499999999999972
627.75 0.3999999999999986
628.046 0.5999999999999979
628.342 0.3832999999999984
628.641 0.5666999999999973
628.937 0.26670000000000016
629.233 0.5
629.529 0.5
629.827 0.48329999999999984
630.123 0.5832999999999977
630.419 0.48329999999999984
630.715 0.41669999999999874
631.011 0.46669999999999945
631.31 0.43329999999999913
631.606 0.5832999999999977
631.902 0.48329999999999984
632.198 0.5
632.494 0.48329999999999984
632.792 0.3999999999999986
633.088 0.5167000000000002
633.384 0.43329999999999913
633.68 0.5999999999999979
633.976 0.5
634.272 0.5
634.57 0.3999999999999986
634.866 0.43329999999999913
635.162 0.5
635.458 0.43329999999999913
635.754 0.43329999999999913
636.05 0.5999999999999979
636.347 0.5666999999999973
636.643 0.5832999999999977
636.939 0.533299999999997
637.235 0.3999999999999986
637.531 0.3999999999999986
637.827 0.5499999999999972
638.123 0.533299999999997
638.421 0.5
638.716 0.43329999999999913
639.012 0.5666999999999973
639.308 0.48329999999999984
639.604 0.48329999999999984
639.9 0.5
640.195 0.3832999999999984
640.491 0.43329999999999913
640.789 0.46669999999999945
641.085 0.43329999999999913
641.381 0.5167000000000002
641.676 0.3999999999999986
641.972 0.5999999999999979
642.268 0.46669999999999945
642.563 0.3999999999999986
642.859 0.6332999999999984
643.155 0.5666999999999973
643.451 0.5
643.746 0.4499999999999993
644.044 0.533299999999997
644.34 0.5666999999999973
644.635 0.41669999999999874
644.931 0.5167000000000002
645.227 0.616699999999998
645.522 0.5666999999999973
645.818 0.41669999999999874
646.113 0.3999999999999986
646.409 0.5832999999999977
646.704 0.43329999999999913
647.0 0.46669999999999945
647.296 0.34999999999999787
647.591 0.43329999999999913
647.887 0.5167000000000002
648.182 0.48329999999999984
648.478 0.5832999999999977
648.773 0.48329999999999984
649.069 0.5167000000000002
649.366 0.43329999999999913
649.662 0.4499999999999993
649.957 0.48329999999999984
650.253 0.533299999999997
650.548 0.6332999999999984
650.844 0.3999999999999986
651.139 0.5832999999999977
651.434 0.533299999999997
651.73 0.4499999999999993
652.025 0.616699999999998
652.321 0.5832999999999977
652.616 0.5999999999999979
652.911 0.616699999999998
653.207 0.46669999999999945
653.502 0.5832999999999977
653.797 0.5999999999999979
654.093 0.6332999999999984
654.388 0.616699999999998
654.683 0.5167000000000002
654.979 0.5832999999999977
655.274 0.6832999999999991
655.567 0.5999999999999979
655.863 0.5666999999999973
656.158 0.8166999999999973
656.453 0.6499999999999986
656.748 0.616699999999998
657.044 0.6832999999999991
657.339 0.783299999999997
657.634 0.6332999999999984
657.929 0.7332999999999998
658.224 0.783299999999997
658.52 0.9166999999999987
658.815 0.6999999999999993
659.11 0.8499999999999979
659.405 0.75
659.7 0.6499999999999986
659.995 0.8332999999999977
660.291 0.75
660.586 0.783299999999997
660.879 0.9166999999999987
661.174 0.7999999999999972
661.469 0.783299999999997
661.764 0.5999999999999979
662.059 0.7667000000000002
662.354 0.75
662.649 0.6666999999999987
662.944 0.6666999999999987
663.239 0.8499999999999979
663.534 0.8499999999999979
663.83 0.8166999999999973
664.122 0.6332999999999984
664.417 0.783299999999997
664.713 0.8332999999999977
665.008 0.616699999999998
665.302 0.6499999999999986
665.597 0.866699999999998
665.892 0.7332999999999998
666.187 0.7166999999999994
666.48 0.5
666.775 0.616699999999998
667.07 0.6332999999999984
667.365 0.5832999999999977
667.66 0.6332999999999984
667.955 0.6666999999999987
668.25 0.75
668.542 0.5499999999999972
668.837 0.616699999999998
669.132 0.533299999999997
669.427 0.6832999999999991
669.722 0.48329999999999984
670.017 0.48329999999999984
670.31 0.783299999999997
670.604 0.5666999999999973
670.899 0.43329999999999913
671.194 0.5167000000000002
671.489 0.5167000000000002
671.783 0.43329999999999913
672.076 0.5499999999999972
672.371 0.5999999999999979
672.666 0.48329999999999984
672.96 0.3832999999999984
673.255 0.866699999999998
673.548 0.43329999999999913
673.842 0.41669999999999874
674.137 0.6332999999999984
674.432 0.46669999999999945
674.727 0.616699999999998
675.019 0.34999999999999787
675.314 0.5499999999999972
675.608 0.5999999999999979
675.903 0.43329999999999913
676.196 0.6332999999999984
676.49 0.5499999999999972
676.785 0.41669999999999874
677.079 0.533299999999997
677.374 0.5
677.667 0.5999999999999979
677.961 0.46669999999999945
678.256 0.533299999999997
678.55 0.48329999999999984
678.843 0.43329999999999913
679.137 0.4499999999999993
679.432 0.533299999999997
679.726 0.533299999999997
680.019 0.48329999999999984
680.313 0.4499999999999993
680.608 0.4499999999999993
680.902 0.46669999999999945
681.195 0.5832999999999977
681.489 0.46669999999999945
681.784 0.4499999999999993
682.076 0.533299999999997
682.37 0.5666999999999973
682.665 0.5
682.959 0.3832999999999984
683.252 0.4499999999999993
683.546 0.4499999999999993
683.84 0.5832999999999977
684.133 0.5999999999999979
684.427 0.46669999999999945
684.721 0.34999999999999787
685.014 0.5
685.308 0.3999999999999986
685.602 0.6332999999999984
685.895 0.5
686.189 0.5999999999999979
686.483 0.5167000000000002
686.778 0.48329999999999984
687.07 0.3999999999999986
687.364 0.6832999999999991
687.658 0.26670000000000016
687.951 0.3332999999999977
688.245 0.46669999999999945
688.537 0.5666999999999973
688.831 0.46669999999999945
689.125 0.5666999999999973
689.418 0.41669999999999874
689.712 0.6332999999999984
690.006 0.48329999999999984
690.298 0.366699999999998
690.592 0.5167000000000002
690.886 0.43329999999999913
691.178 0.5832999999999977
691.473 0.5832999999999977
691.767 0.43329999999999913
692.059 0.5666999999999973
692.353 0.41669999999999874
692.645 0.46669999999999945
692.939 0.3999999999999986
693.233 0.4499999999999993
693.525 0.3999999999999986
693.819 0.46669999999999945
694.111 0.41669999999999874
694.405 0.5167000000000002
694.699 0.5832999999999977
694.991 0.5499999999999972
695.285 0.46669999999999945
695.577 0.5666999999999973
695.871 0.3832999999999984
696.165 0.6499999999999986
696.457 0.5167000000000002
696.751 0.34999999999999787
697.043 0.48329999999999984
697.337 0.5167000000000002
697.629 0.41669999999999874
697.923 0.5832999999999977
698.217 0.4499999999999993
698.509 0.34999999999999787
698.802 0.5666999999999973
699.094 0.3999999999999986
699.388 0.533299999999997
699.68 0.48329999999999984
699.974 0.48329999999999984
700.266 0.41669999999999874
700.56 0.48329999999999984
700.853 0.5499999999999972
701.145 0.3999999999999986
701.439 0.5666999999999973
701.731 0.43329999999999913
702.025 0.46669999999999945
702.316 0.5999999999999979
702.61 0.5666999999999973
702.902 0.4499999999999993
703.196 0.616699999999998
703.487 0.5167000000000002
703.781 0.3832999999999984
704.073 0.46669999999999945
704.367 0.533299999999997
704.658 0.5666999999999973
704.952 0.46669999999999945
705.244 0.5167000000000002
705.537 0.48329999999999984
705.829 0.5666999999999973
706.122 0.43329999999999913
706.414 0.5666999999999973
706.708 0.533299999999997
706.999 0.3999999999999986
707.293 0.5
