# Created: 2019-11-28 13:05:38.545595
# rshift intensity
76.1738 0.16669999999999874
76.4989 0.16669999999999874
76.824 0.18329999999999913
77.1491 0.11669999999999803
77.4721 0.23329999999999984
77.7972 0.21669999999999945
78.1223 0.14999999999999858
78.4474 0.1999999999999993
78.7724 0.11669999999999803
79.0975 0.13329999999999842
79.4204 0.11669999999999803
79.7454 0.13329999999999842
80.0704 0.13329999999999842
80.3954 0.04999999999999716
80.7204 0.13329999999999842
81.0454 0.09999999999999787
81.3682 0.18329999999999913
81.6931 0.11669999999999803
82.0181 0.033299999999997
82.343 0.13329999999999842
82.6679 0.11669999999999803
82.9907 0.18329999999999913
83.3156 0.13329999999999842
83.6405 0.09999999999999787
83.9654 0.13329999999999842
84.2903 0.06669999999999732
84.613 0.09999999999999787
84.9378 0.06669999999999732
85.2626 0.13329999999999842
85.5875 0.01670000000000016
85.9101 0.09999999999999787
86.2349 0.16669999999999874
86.5597 0.16669999999999874
86.8845 0.09999999999999787
87.2093 0.16669999999999874
87.5319 0.18329999999999913
87.8566 0.13329999999999842
88.1814 0.13329999999999842
88.5061 0.1999999999999993
88.8286 0.18329999999999913
89.1533 0.04999999999999716
89.478 0.16669999999999874
89.8027 0.14999999999999858
90.1252 0.21669999999999945
90.4499 0.18329999999999913
90.7745 0.033299999999997
91.0992 0.1999999999999993
91.4216 0.04999999999999716
91.7462 0.18329999999999913
92.0708 0.13329999999999842
92.3954 0.21669999999999945
92.7179 0.14999999999999858
93.0424 0.21669999999999945
93.367 0.16669999999999874
93.6915 0.06669999999999732
94.0139 0.08329999999999771
94.3384 0.06669999999999732
94.6629 0.09999999999999787
94.9853 0.09999999999999787
95.3098 0.11669999999999803
95.6342 0.21669999999999945
95.9587 0.09999999999999787
96.281 0.08329999999999771
96.6055 0.14999999999999858
96.9299 0.16669999999999874
97.2522 0.16669999999999874
97.5766 0.18329999999999913
97.901 0.0
98.2232 0.16669999999999874
98.5476 0.09999999999999787
98.8719 0.16669999999999874
99.1942 0.16669999999999874
99.5185 0.11669999999999803
99.8428 0.21669999999999945
100.165 0.13329999999999842
100.489 0.16669999999999874
100.814 0.16669999999999874
101.136 0.13329999999999842
101.46 0.08329999999999771
101.784 0.01670000000000016
102.106 0.08329999999999771
102.431 0.1999999999999993
102.755 0.1999999999999993
103.077 0.18329999999999913
103.401 0.13329999999999842
103.725 0.09999999999999787
104.047 0.18329999999999913
104.372 0.09999999999999787
104.696 0.23329999999999984
105.018 0.08329999999999771
105.342 0.14999999999999858
105.666 0.13329999999999842
105.988 0.16669999999999874
106.312 0.14999999999999858
106.634 0.08329999999999771
106.958 0.18329999999999913
107.282 0.11669999999999803
107.604 0.11669999999999803
107.928 0.18329999999999913
108.252 0.11669999999999803
108.574 0.11669999999999803
108.898 0.1999999999999993
109.22 0.06669999999999732
109.544 0.11669999999999803
109.868 0.1999999999999993
110.19 0.14999999999999858
110.514 0.09999999999999787
110.836 0.09999999999999787
111.159 0.29999999999999716
111.483 0.14999999999999858
111.805 0.1999999999999993
112.129 0.18329999999999913
112.451 0.13329999999999842
112.775 0.16669999999999874
113.096 0.13329999999999842
113.42 0.06669999999999732
113.744 0.13329999999999842
114.066 0.14999999999999858
114.39 0.11669999999999803
114.711 0.16669999999999874
115.035 0.1999999999999993
115.357 0.06669999999999732
115.681 0.25
116.004 0.033299999999997
116.326 0.09999999999999787
116.65 0.08329999999999771
116.971 0.16669999999999874
117.295 0.18329999999999913
117.617 0.06669999999999732
117.94 0.033299999999997
118.262 0.23329999999999984
118.586 0.1999999999999993
118.907 0.06669999999999732
119.231 0.14999999999999858
119.554 0.09999999999999787
119.876 0.06669999999999732
120.199 0.08329999999999771
120.521 0.13329999999999842
120.845 0.1999999999999993
121.166 0.04999999999999716
121.49 0.18329999999999913
121.811 0.06669999999999732
122.135 0.11669999999999803
122.456 0.1999999999999993
122.78 0.09999999999999787
123.101 0.11669999999999803
123.424 0.16669999999999874
123.746 0.16669999999999874
124.069 0.1999999999999993
124.391 0.04999999999999716
124.714 0.09999999999999787
125.035 0.13329999999999842
125.359 0.1999999999999993
125.68 0.09999999999999787
126.004 0.08329999999999771
126.325 0.14999999999999858
126.648 0.08329999999999771
126.97 0.1999999999999993
127.291 0.21669999999999945
127.614 0.11669999999999803
127.935 0.13329999999999842
128.259 0.16669999999999874
128.58 0.14999999999999858
128.903 0.14999999999999858
129.224 0.21669999999999945
129.548 0.21669999999999945
129.869 0.16669999999999874
130.192 0.08329999999999771
130.513 0.1999999999999993
130.834 0.13329999999999842
131.158 0.14999999999999858
131.479 0.13329999999999842
131.802 0.1999999999999993
132.123 0.13329999999999842
132.446 0.11669999999999803
132.767 0.11669999999999803
133.09 0.09999999999999787
133.411 0.21669999999999945
133.733 0.18329999999999913
134.056 0.16669999999999874
134.377 0.09999999999999787
134.7 0.1999999999999993
135.021 0.29999999999999716
135.342 0.16669999999999874
135.665 0.16669999999999874
135.986 0.13329999999999842
136.309 0.13329999999999842
136.63 0.16669999999999874
136.951 0.06669999999999732
137.274 0.21669999999999945
137.595 0.16669999999999874
137.918 0.26670000000000016
138.238 0.08329999999999771
138.559 0.09999999999999787
138.882 0.23329999999999984
139.203 0.14999999999999858
139.526 0.09999999999999787
139.847 0.09999999999999787
140.168 0.29999999999999716
140.491 0.16669999999999874
140.811 0.11669999999999803
141.132 0.25
141.455 0.16669999999999874
141.776 0.14999999999999858
142.097 0.13329999999999842
142.419 0.14999999999999858
142.74 0.09999999999999787
143.061 0.18329999999999913
143.384 0.16669999999999874
143.704 0.08329999999999771
144.027 0.21669999999999945
144.348 0.1999999999999993
144.668 0.1999999999999993
144.991 0.16669999999999874
145.312 0.1999999999999993
145.632 0.09999999999999787
145.955 0.18329999999999913
146.276 0.1999999999999993
146.596 0.1999999999999993
146.917 0.18329999999999913
147.24 0.14999999999999858
147.56 0.11669999999999803
147.881 0.1999999999999993
148.203 0.04999999999999716
148.524 0.18329999999999913
148.844 0.14999999999999858
149.167 0.16669999999999874
149.487 0.18329999999999913
149.808 0.11669999999999803
150.131 0.16669999999999874
150.451 0.11669999999999803
150.771 0.16669999999999874
151.092 0.18329999999999913
151.414 0.11669999999999803
151.735 0.18329999999999913
152.055 0.04999999999999716
152.378 0.18329999999999913
152.698 0.08329999999999771
153.018 0.13329999999999842
153.339 0.13329999999999842
153.661 0.1999999999999993
153.982 0.23329999999999984
154.302 0.14999999999999858
154.622 0.11669999999999803
154.945 0.1999999999999993
155.265 0.23329999999999984
155.585 0.21669999999999945
155.905 0.06669999999999732
156.228 0.13329999999999842
156.548 0.14999999999999858
156.868 0.21669999999999945
157.188 0.09999999999999787
157.511 0.18329999999999913
157.831 0.16669999999999874
158.151 0.16669999999999874
158.471 0.14999999999999858
158.794 0.25
159.114 0.11669999999999803
159.434 0.18329999999999913
159.754 0.1999999999999993
160.074 0.23329999999999984
160.396 0.1999999999999993
160.717 0.1999999999999993
161.037 0.26670000000000016
161.357 0.14999999999999858
161.679 0.13329999999999842
161.999 0.25
162.319 0.16669999999999874
162.639 0.14999999999999858
162.959 0.1999999999999993
163.281 0.09999999999999787
163.601 0.1999999999999993
163.921 0.21669999999999945
164.241 0.18329999999999913
164.561 0.23329999999999984
164.881 0.23329999999999984
165.203 0.25
165.523 0.16669999999999874
165.843 0.14999999999999858
166.163 0.26670000000000016
166.483 0.18329999999999913
166.803 0.23329999999999984
167.125 0.26670000000000016
167.445 0.18329999999999913
167.764 0.16669999999999874
168.084 0.18329999999999913
168.404 0.14999999999999858
168.724 0.21669999999999945
169.046 0.08329999999999771
169.366 0.16669999999999874
169.685 0.1999999999999993
170.005 0.14999999999999858
170.325 0.16669999999999874
170.645 0.23329999999999984
170.964 0.11669999999999803
171.286 0.16669999999999874
171.606 0.16669999999999874
171.926 0.25
172.245 0.18329999999999913
172.565 0.16669999999999874
172.885 0.21669999999999945
173.204 0.14999999999999858
173.524 0.08329999999999771
173.846 0.18329999999999913
174.166 0.18329999999999913
174.485 0.26670000000000016
174.805 0.283299999999997
175.124 0.11669999999999803
175.444 0.13329999999999842
175.764 0.06669999999999732
176.083 0.14999999999999858
176.403 0.25
176.722 0.13329999999999842
177.044 0.23329999999999984
177.363 0.08329999999999771
177.683 0.25
178.002 0.13329999999999842
178.322 0.08329999999999771
178.641 0.08329999999999771
178.961 0.16669999999999874
179.28 0.18329999999999913
179.6 0.09999999999999787
179.919 0.16669999999999874
180.239 0.18329999999999913
180.558 0.11669999999999803
180.877 0.14999999999999858
181.197 0.23329999999999984
181.516 0.09999999999999787
181.838 0.1999999999999993
182.157 0.08329999999999771
182.476 0.25
182.796 0.14999999999999858
183.115 0.13329999999999842
183.434 0.14999999999999858
183.754 0.033299999999997
184.073 0.26670000000000016
184.392 0.1999999999999993
184.712 0.1999999999999993
185.031 0.21669999999999945
185.35 0.11669999999999803
185.669 0.16669999999999874
185.989 0.14999999999999858
186.308 0.11669999999999803
186.627 0.18329999999999913
186.946 0.11669999999999803
187.265 0.08329999999999771
187.585 0.13329999999999842
187.904 0.11669999999999803
188.223 0.21669999999999945
188.542 0.08329999999999771
188.861 0.13329999999999842
189.18 0.18329999999999913
189.499 0.21669999999999945
189.818 0.18329999999999913
190.138 0.18329999999999913
190.457 0.23329999999999984
190.776 0.18329999999999913
191.095 0.13329999999999842
191.414 0.13329999999999842
191.733 0.13329999999999842
192.052 0.26670000000000016
192.371 0.19715889997887004
192.69 0.18401564525738934
193.009 0.1873989567897496
193.328 0.1884726314278602
193.647 0.19495667391016624
193.966 0.18904407378988708
194.285 0.19276903041373572
194.602 0.11669999999999803
194.92 0.283299999999997
195.239 0.1999999999999993
195.558 0.14999999999999858
195.877 0.26670000000000016
196.196 0.1999999999999993
196.515 0.16669999999999874
196.834 0.13329999999999842
197.153 0.16669999999999874
197.471 0.25
197.79 0.26670000000000016
198.109 0.09999999999999787
198.428 0.23329999999999984
198.747 0.18329999999999913
199.065 0.18329999999999913
199.382 0.09999999999999787
199.701 0.13329999999999842
200.02 0.21669999999999945
200.338 0.21669999999999945
200.657 0.16669999999999874
200.976 0.18329999999999913
201.295 0.11669999999999803
201.613 0.1999999999999993
201.932 0.18329999999999913
202.251 0.1999999999999993
202.567 0.29999999999999716
202.886 0.18329999999999913
203.204 0.18329999999999913
203.523 0.16669999999999874
203.842 0.16669999999999874
204.16 0.18329999999999913
204.479 0.08329999999999771
204.797 0.21669999999999945
205.114 0.18329999999999913
205.433 0.23329999999999984
205.751 0.21669999999999945
206.07 0.23329999999999984
206.388 0.06669999999999732
206.707 0.283299999999997
207.025 0.23329999999999984
207.342 0.16669999999999874
207.66 0.1999999999999993
207.979 0.23329999999999984
208.297 0.21669999999999945
208.615 0.14999999999999858
208.934 0.26670000000000016
209.25 0.1999999999999993
209.569 0.13329999999999842
209.887 0.13329999999999842
210.205 0.25
210.524 0.11669999999999803
210.842 0.09999999999999787
211.158 0.23329999999999984
211.477 0.25
211.795 0.26670000000000016
212.113 0.18329999999999913
212.432 0.23329999999999984
212.75 0.283299999999997
213.066 0.18329999999999913
213.385 0.26670000000000016
213.703 0.13329999999999842
214.021 0.3166999999999973
214.339 0.1999999999999993
214.656 0.14999999999999858
214.974 0.29999999999999716
215.292 0.21669999999999945
215.61 0.283299999999997
215.926 0.16669999999999874
216.245 0.09999999999999787
216.563 0.3166999999999973
216.881 0.13329999999999842
217.199 0.1999999999999993
217.515 0.21669999999999945
217.833 0.16669999999999874
218.151 0.21669999999999945
218.469 0.1999999999999993
218.785 0.13329999999999842
219.104 0.16669999999999874
219.422 0.16669999999999874
219.74 0.21669999999999945
220.056 0.16669999999999874
220.374 0.21669999999999945
220.692 0.21669999999999945
221.01 0.23329999999999984
221.326 0.283299999999997
221.644 0.11669999999999803
221.962 0.25
222.28 0.18329999999999913
222.596 0.25
222.914 0.21669999999999945
223.232 0.21669999999999945
223.547 0.26670000000000016
223.865 0.13329999999999842
224.183 0.23329999999999984
224.501 0.14999999999999858
224.817 0.14999999999999858
225.135 0.34999999999999787
225.453 0.13329999999999842
225.768 0.14999999999999858
226.086 0.1999999999999993
226.404 0.18329999999999913
226.722 0.25
227.038 0.23329999999999984
227.355 0.16669999999999874
227.673 0.21669999999999945
227.989 0.18329999999999913
228.307 0.21669999999999945
228.625 0.1999999999999993
228.94 0.26670000000000016
229.258 0.16669999999999874
229.576 0.26670000000000016
229.891 0.1999999999999993
230.209 0.21669999999999945
230.527 0.1999999999999993
230.842 0.14999999999999858
231.16 0.26670000000000016
231.478 0.16669999999999874
231.793 0.18329999999999913
232.111 0.14999999999999858
232.428 0.26670000000000016
232.744 0.23329999999999984
233.062 0.21669999999999945
233.379 0.09999999999999787
233.695 0.3332999999999977
234.012 0.283299999999997
234.33 0.16669999999999874
234.645 0.23329999999999984
234.963 0.21669999999999945
235.278 0.16669999999999874
235.596 0.23329999999999984
235.913 0.21669999999999945
236.229 0.18329999999999913
236.546 0.1999999999999993
236.864 0.23329999999999984
237.179 0.29999999999999716
237.497 0.3166999999999973
237.812 0.13329999999999842
238.129 0.1999999999999993
238.447 0.23329999999999984
238.762 0.1999999999999993
239.08 0.1999999999999993
239.395 0.21669999999999945
239.712 0.1999999999999993
240.03 0.21669999999999945
240.345 0.29999999999999716
240.662 0.283299999999997
240.978 0.29999999999999716
241.295 0.23329999999999984
241.61 0.26670000000000016
241.927 0.283299999999997
242.245 0.25
242.56 0.3166999999999973
242.877 0.29999999999999716
243.192 0.18329999999999913
243.51 0.25
243.825 0.1999999999999993
244.142 0.23329999999999984
244.459 0.23329999999999984
244.774 0.21669999999999945
245.092 0.25
245.407 0.26670000000000016
245.724 0.283299999999997
246.039 0.21669999999999945
246.356 0.283299999999997
246.671 0.1999999999999993
246.988 0.23329999999999984
247.303 0.25
247.62 0.25
247.938 0.18329999999999913
248.253 0.23329999999999984
248.57 0.366699999999998
248.885 0.21669999999999945
249.202 0.25
249.517 0.21669999999999945
249.834 0.13329999999999842
250.149 0.283299999999997
250.466 0.16669999999999874
250.781 0.29999999999999716
251.098 0.283299999999997
251.412 0.18329999999999913
251.729 0.29999999999999716
252.044 0.11669999999999803
252.361 0.283299999999997
252.676 0.16669999999999874
252.993 0.14999999999999858
253.308 0.21669999999999945
253.625 0.26670000000000016
253.94 0.23329999999999984
254.256 0.1999999999999993
254.571 0.11669999999999803
254.888 0.29999999999999716
255.203 0.13329999999999842
255.518 0.23329999999999984
255.834 0.16669999999999874
256.149 0.25
256.466 0.26670000000000016
256.781 0.16669999999999874
257.097 0.21669999999999945
257.412 0.283299999999997
257.729 0.18329999999999913
258.044 0.3166999999999973
258.36 0.1999999999999993
258.675 0.21669999999999945
258.99 0.1999999999999993
259.306 0.283299999999997
259.621 0.1999999999999993
259.938 0.21669999999999945
260.252 0.25
260.569 0.23329999999999984
260.883 0.16669999999999874
261.198 0.25
261.515 0.14999999999999858
261.829 0.26670000000000016
262.146 0.18329999999999913
262.46 0.21669999999999945
262.775 0.25
263.091 0.29999999999999716
263.406 0.23329999999999984
263.723 0.18329999999999913
264.037 0.16669999999999874
264.354 0.14999999999999858
264.668 0.26670000000000016
264.982 0.1999999999999993
265.299 0.21669999999999945
265.613 0.25
265.928 0.283299999999997
266.244 0.26670000000000016
266.559 0.283299999999997
266.875 0.23329999999999984
267.189 0.23329999999999984
267.504 0.26670000000000016
267.82 0.26670000000000016
268.134 0.283299999999997
268.449 0.366699999999998
268.765 0.3332999999999977
269.079 0.23329999999999984
269.394 0.16669999999999874
269.71 0.25
270.024 0.25
270.341 0.25
270.655 0.13329999999999842
270.969 0.21669999999999945
271.286 0.25
271.6 0.283299999999997
271.914 0.26670000000000016
272.23 0.26670000000000016
272.544 0.21669999999999945
272.859 0.1999999999999993
273.175 0.23329999999999984
273.489 0.14999999999999858
273.803 0.25
274.119 0.11669999999999803
274.433 0.21669999999999945
274.747 0.23329999999999984
275.062 0.283299999999997
275.378 0.18329999999999913
275.692 0.16669999999999874
276.006 0.18329999999999913
276.322 0.14999999999999858
276.636 0.21669999999999945
276.95 0.1999999999999993
277.266 0.14999999999999858
277.58 0.18329999999999913
277.894 0.23329999999999984
278.208 0.25
278.524 0.18329999999999913
278.838 0.18329999999999913
279.152 0.25
279.468 0.18329999999999913
279.782 0.26670000000000016
280.096 0.21669999999999945
280.41 0.3332999999999977
280.726 0.283299999999997
281.04 0.29999999999999716
281.354 0.23329999999999984
281.668 0.3999999999999986
281.983 0.23329999999999984
282.297 0.23329999999999984
282.611 0.21669999999999945
282.925 0.3166999999999973
283.241 0.18329999999999913
283.555 0.21669999999999945
283.868 0.366699999999998
284.182 0.23329999999999984
284.498 0.3166999999999973
284.812 0.04999999999999716
285.126 0.23329999999999984
285.439 0.21669999999999945
285.753 0.283299999999997
286.069 0.14999999999999858
286.383 0.1999999999999993
286.696 0.21669999999999945
287.01 0.3166999999999973
287.326 0.21669999999999945
287.639 0.16669999999999874
287.953 0.283299999999997
288.267 0.21669999999999945
288.58 0.25
288.896 0.14999999999999858
289.21 0.1999999999999993
289.523 0.29999999999999716
289.837 0.29999999999999716
290.15 0.25
290.466 0.25
290.78 0.29999999999999716
291.093 0.25
291.407 0.16669999999999874
291.72 0.18329999999999913
292.034 0.21669999999999945
292.349 0.16669999999999874
292.663 0.1999999999999993
292.976 0.16669999999999874
293.29 0.08329999999999771
293.603 0.21669999999999945
293.917 0.3166999999999973
294.232 0.26670000000000016
294.546 0.1999999999999993
294.859 0.25
295.172 0.18329999999999913
295.486 0.23329999999999984
295.799 0.18329999999999913
296.113 0.25
296.428 0.1999999999999993
296.741 0.1999999999999993
297.055 0.3166999999999973
297.368 0.23329999999999984
297.681 0.3166999999999973
297.995 0.283299999999997
298.308 0.41669999999999874
298.621 0.34999999999999787
298.937 0.26670000000000016
299.25 0.26670000000000016
299.563 0.283299999999997
299.876 0.14999999999999858
300.19 0.16669999999999874
300.503 0.16669999999999874
300.816 0.16669999999999874
301.129 0.1999999999999993
301.442 0.3332999999999977
301.756 0.283299999999997
302.071 0.23329999999999984
302.384 0.21669999999999945
302.697 0.11669999999999803
303.01 0.21669999999999945
303.323 0.3166999999999973
303.637 0.25
303.95 0.23329999999999984
304.263 0.23329999999999984
304.576 0.29999999999999716
304.889 0.21669999999999945
305.202 0.14999999999999858
305.515 0.3166999999999973
305.828 0.21669999999999945
306.141 0.3166999999999973
306.456 0.26670000000000016
306.769 0.13329999999999842
307.082 0.21669999999999945
307.395 0.21669999999999945
307.708 0.34999999999999787
308.021 0.23329999999999984
308.334 0.21669999999999945
308.647 0.366699999999998
308.96 0.29999999999999716
309.273 0.21669999999999945
309.586 0.283299999999997
309.899 0.283299999999997
310.212 0.14999999999999858
310.525 0.16669999999999874
310.838 0.26670000000000016
311.15 0.25
311.463 0.25
311.776 0.3166999999999973
312.089 0.06669999999999732
312.402 0.283299999999997
312.715 0.26670000000000016
313.027 0.16669999999999874
313.34 0.25
313.653 0.13329999999999842
313.966 0.3832999999999984
314.278 0.14999999999999858
314.591 0.23329999999999984
314.904 0.23329999999999984
315.217 0.25
315.529 0.21669999999999945
315.842 0.21669999999999945
316.155 0.283299999999997
316.467 0.3166999999999973
316.78 0.26670000000000016
317.093 0.3332999999999977
317.405 0.26670000000000016
317.718 0.23329999999999984
318.031 0.3332999999999977
318.343 0.25
318.656 0.25
318.969 0.26670000000000016
319.281 0.3832999999999984
319.592 0.25
319.904 0.25
320.217 0.41669999999999874
320.529 0.26670000000000016
320.842 0.25
321.154 0.34999999999999787
321.467 0.29999999999999716
321.779 0.26670000000000016
322.092 0.23329999999999984
322.404 0.26670000000000016
322.717 0.1999999999999993
323.029 0.23329999999999984
323.342 0.18329999999999913
323.654 0.283299999999997
323.965 0.34999999999999787
324.277 0.3832999999999984
324.589 0.23329999999999984
324.902 0.283299999999997
325.214 0.1999999999999993
325.527 0.26670000000000016
325.839 0.26670000000000016
326.151 0.3332999999999977
326.464 0.283299999999997
326.776 0.25
327.086 0.25
327.399 0.3832999999999984
327.711 0.283299999999997
328.023 0.26670000000000016
328.335 0.26670000000000016
328.648 0.1999999999999993
328.96 0.3166999999999973
329.27 0.366699999999998
329.582 0.34999999999999787
329.895 0.29999999999999716
330.207 0.3166999999999973
330.519 0.29999999999999716
330.831 0.3832999999999984
331.143 0.41669999999999874
331.454 0.283299999999997
331.766 0.34999999999999787
332.078 0.3166999999999973
332.39 0.29999999999999716
332.702 0.46669999999999945
333.014 0.34999999999999787
333.326 0.5167000000000002
333.636 0.3332999999999977
333.948 0.366699999999998
334.261 0.3999999999999986
334.573 0.34999999999999787
334.885 0.34999999999999787
335.195 0.26670000000000016
335.507 0.43329999999999913
335.819 0.29999999999999716
336.131 0.283299999999997
336.443 0.26670000000000016
336.753 0.3999999999999986
337.065 0.34999999999999787
337.377 0.25
337.689 0.16669999999999874
338.001 0.3166999999999973
338.31 0.3332999999999977
338.622 0.3332999999999977
338.934 0.29999999999999716
339.246 0.283299999999997
339.558 0.283299999999997
339.868 0.25
340.18 0.3332999999999977
340.492 0.283299999999997
340.804 0.23329999999999984
341.113 0.3999999999999986
341.425 0.3332999999999977
341.737 0.29999999999999716
342.049 0.3332999999999977
342.361 0.3332999999999977
342.67 0.26670000000000016
342.982 0.283299999999997
343.294 0.3332999999999977
343.606 0.25
343.915 0.3332999999999977
344.227 0.23329999999999984
344.539 0.283299999999997
344.849 0.18329999999999913
345.16 0.3999999999999986
345.472 0.26670000000000016
345.784 0.29999999999999716
346.093 0.3999999999999986
346.405 0.3332999999999977
346.717 0.29999999999999716
347.028 0.3999999999999986
347.338 0.34999999999999787
347.649 0.3166999999999973
347.961 0.46669999999999945
348.271 0.366699999999998
348.582 0.29999999999999716
348.894 0.3166999999999973
349.205 0.3332999999999977
349.515 0.41669999999999874
349.826 0.3999999999999986
350.138 0.3166999999999973
350.447 0.26670000000000016
350.759 0.41669999999999874
351.07 0.366699999999998
351.38 0.29999999999999716
351.691 0.48329999999999984
352.003 0.3166999999999973
352.312 0.29999999999999716
352.624 0.25
352.935 0.283299999999997
353.245 0.366699999999998
353.556 0.26670000000000016
353.867 0.25
354.177 0.3166999999999973
354.488 0.3166999999999973
354.799 0.23329999999999984
355.109 0.29999999999999716
355.42 0.283299999999997
355.732 0.3166999999999973
356.041 0.29999999999999716
356.352 0.283299999999997
356.663 0.3166999999999973
356.973 0.3999999999999986
357.284 0.3166999999999973
357.593 0.25
357.905 0.29999999999999716
358.216 0.283299999999997
358.525 0.366699999999998
358.836 0.29999999999999716
359.147 0.29999999999999716
359.457 0.5167000000000002
359.768 0.3332999999999977
360.077 0.29999999999999716
360.388 0.283299999999997
360.699 0.29999999999999716
361.008 0.3166999999999973
361.32 0.3166999999999973
361.629 0.26670000000000016
361.94 0.366699999999998
362.251 0.366699999999998
362.56 0.34999999999999787
362.871 0.21669999999999945
363.18 0.3832999999999984
363.491 0.1999999999999993
363.8 0.283299999999997
364.111 0.29999999999999716
364.422 0.21669999999999945
364.731 0.29999999999999716
365.042 0.25
365.351 0.3332999999999977
365.662 0.283299999999997
365.971 0.25
366.282 0.25
366.593 0.26670000000000016
366.902 0.3166999999999973
367.213 0.3332999999999977
367.522 0.26670000000000016
367.833 0.41669999999999874
368.142 0.29728533986532923
368.453 0.2920755883666075
368.762 0.2934737225659454
369.073 0.29095152823402515
369.381 0.29602177932364526
369.692 0.2940056328577292
370.001 0.29798153933375815
370.312 0.26670000000000016
370.623 0.23329999999999984
370.932 0.26670000000000016
371.242 0.21669999999999945
371.551 0.34999999999999787
371.862 0.23329999999999984
372.171 0.34999999999999787
372.482 0.366699999999998
372.79 0.366699999999998
373.101 0.25
373.41 0.18329999999999913
373.721 0.29999999999999716
374.029 0.366699999999998
374.34 0.41669999999999874
374.649 0.3832999999999984
374.959 0.3166999999999973
375.268 0.3332999999999977
375.577 0.29999999999999716
375.887 0.3832999999999984
376.196 0.283299999999997
376.506 0.3332999999999977
376.815 0.3999999999999986
377.126 0.3832999999999984
377.434 0.25
377.745 0.3332999999999977
378.053 0.29999999999999716
378.364 0.366699999999998
378.672 0.34999999999999787
378.983 0.3166999999999973
379.292 0.4499999999999993
379.6 0.3332999999999977
379.911 0.43329999999999913
380.219 0.3332999999999977
380.53 0.48329999999999984
380.838 0.5
381.148 0.3166999999999973
381.457 0.21669999999999945
381.767 0.43329999999999913
382.076 0.34999999999999787
382.384 0.366699999999998
382.695 0.366699999999998
383.003 0.283299999999997
383.313 0.26670000000000016
383.622 0.3332999999999977
383.93 0.43329999999999913
384.24 0.3332999999999977
384.549 0.366699999999998
384.859 0.366699999999998
385.167 0.21669999999999945
385.476 0.283299999999997
385.786 0.26670000000000016
386.094 0.3332999999999977
386.405 0.3332999999999977
386.713 0.34999999999999787
387.021 0.25
387.331 0.3166999999999973
387.64 0.283299999999997
387.948 0.25
388.258 0.366699999999998
388.566 0.34999999999999787
388.877 0.26670000000000016
389.185 0.34999999999999787
389.493 0.366699999999998
389.803 0.283299999999997
390.111 0.46669999999999945
390.419 0.25
390.729 0.41669999999999874
391.038 0.3832999999999984
391.346 0.366699999999998
391.656 0.29999999999999716
391.964 0.29999999999999716
392.272 0.3832999999999984
392.582 0.366699999999998
392.89 0.3332999999999977
393.198 0.3166999999999973
393.508 0.34999999999999787
393.816 0.3832999999999984
394.124 0.283299999999997
394.434 0.3332999999999977
394.742 0.3999999999999986
395.05 0.366699999999998
395.36 0.46669999999999945
395.668 0.4499999999999993
395.976 0.4499999999999993
396.286 0.3999999999999986
396.594 0.29999999999999716
396.902 0.34999999999999787
397.21 0.3832999999999984
397.52 0.41669999999999874
397.828 0.46669999999999945
398.135 0.3332999999999977
398.445 0.34999999999999787
398.753 0.3832999999999984
399.061 0.5
399.369 0.43329999999999913
399.679 0.29999999999999716
399.987 0.34999999999999787
400.294 0.29999999999999716
400.604 0.3999999999999986
400.912 0.3832999999999984
401.22 0.366699999999998
401.527 0.43329999999999913
401.837 0.26670000000000016
402.145 0.3999999999999986
402.453 0.26670000000000016
402.76 0.3166999999999973
403.07 0.46669999999999945
403.378 0.29999999999999716
403.686 0.3332999999999977
403.993 0.283299999999997
404.303 0.43329999999999913
404.611 0.5167000000000002
404.918 0.29999999999999716
405.226 0.34999999999999787
405.533 0.3332999999999977
405.843 0.533299999999997
406.151 0.43329999999999913
406.458 0.41669999999999874
406.766 0.4499999999999993
407.076 0.48329999999999984
407.383 0.43329999999999913
407.691 0.366699999999998
407.998 0.34999999999999787
408.306 0.3332999999999977
408.615 0.3332999999999977
408.923 0.46669999999999945
409.23 0.41669999999999874
409.538 0.3999999999999986
409.845 0.5999999999999979
410.153 0.43329999999999913
410.462 0.43329999999999913
410.77 0.5
411.077 0.3832999999999984
411.384 0.533299999999997
411.692 0.41669999999999874
412.001 0.43329999999999913
412.309 0.6499999999999986
412.616 0.5999999999999979
412.923 0.3999999999999986
413.231 0.46669999999999945
413.538 0.6499999999999986
413.845 0.46669999999999945
414.155 0.366699999999998
414.462 0.46669999999999945
414.769 0.46669999999999945
415.077 0.616699999999998
415.384 0.533299999999997
415.691 0.6332999999999984
415.999 0.6999999999999993
416.308 0.6666999999999987
416.615 0.6999999999999993
416.922 0.783299999999997
417.23 0.6999999999999993
417.537 0.7667000000000002
417.844 0.6999999999999993
418.151 0.6999999999999993
418.458 0.9166999999999987
418.768 0.8832999999999984
419.075 0.8499999999999979
419.382 0.783299999999997
419.689 0.8332999999999977
419.996 1.0499999999999972
420.303 0.9499999999999993
420.61 1.0832999999999977
420.918 0.866699999999998
421.225 1.0499999999999972
421.532 1.0666999999999973
421.841 1.2166999999999994
422.148 1.0499999999999972
422.455 1.3332999999999977
422.762 1.2667000000000002
423.069 1.283299999999997
423.376 1.2332999999999998
423.683 1.25
423.99 1.3832999999999984
424.297 1.366699999999998
424.604 1.0999999999999979
424.911 1.2999999999999972
425.218 1.0999999999999979
425.525 1.116699999999998
425.832 1.1999999999999993
426.139 1.2166999999999994
426.446 1.1332999999999984
426.753 1.2166999999999994
427.061 1.0
427.368 0.9666999999999994
427.675 1.0
427.982 0.9499999999999993
428.289 0.9499999999999993
428.596 0.7999999999999972
428.903 1.033299999999997
429.209 0.75
429.516 0.8999999999999986
429.823 0.7166999999999994
430.13 0.7667000000000002
430.437 0.7332999999999998
430.743 0.8332999999999977
431.05 0.7166999999999994
431.357 0.5666999999999973
431.664 0.783299999999997
431.97 0.5999999999999979
432.277 0.533299999999997
432.584 0.6999999999999993
432.891 0.6832999999999991
433.197 0.6332999999999984
433.504 0.7332999999999998
433.811 0.7332999999999998
434.117 0.5999999999999979
434.424 0.41669999999999874
434.731 0.5999999999999979
435.037 0.6332999999999984
435.344 0.5499999999999972
435.65 0.5666999999999973
435.957 0.6499999999999986
436.262 0.616699999999998
436.568 0.533299999999997
436.875 0.6332999999999984
437.181 0.41669999999999874
437.488 0.5499999999999972
437.794 0.46669999999999945
438.101 0.5167000000000002
438.407 0.3166999999999973
438.714 0.4499999999999993
439.02 0.3999999999999986
439.327 0.5499999999999972
439.633 0.46669999999999945
439.94 0.3832999999999984
440.246 0.48329999999999984
440.553 0.48329999999999984
440.859 0.5832999999999977
441.163 0.3832999999999984
441.47 0.4499999999999993
441.776 0.533299999999997
442.083 0.5167000000000002
442.389 0.5499999999999972
442.695 0.4499999999999993
443.002 0.5167000000000002
443.308 0.43329999999999913
443.614 0.48329999999999984
443.921 0.41669999999999874
444.225 0.41669999999999874
444.531 0.48329999999999984
444.838 0.366699999999998
445.144 0.5167000000000002
445.45 0.6499999999999986
445.757 0.34999999999999787
446.063 0.41669999999999874
446.369 0.5167000000000002
446.675 0.4499999999999993
446.979 0.3166999999999973
447.286 0.3832999999999984
447.592 0.3999999999999986
447.898 0.43329999999999913
448.204 0.48329999999999984
448.51 0.5167000000000002
448.817 0.4499999999999993
449.121 0.5
449.427 0.3832999999999984
449.733 0.5167000000000002
450.039 0.5832999999999977
450.345 0.41669999999999874
450.651 0.41669999999999874
450.955 0.366699999999998
451.261 0.34999999999999787
451.568 0.4499999999999993
451.874 0.533299999999997
452.18 0.5
452.486 0.3832999999999984
452.79 0.43329999999999913
453.096 0.3832999999999984
453.402 0.4499999999999993
453.708 0.3999999999999986
454.014 0.5499999999999972
454.318 0.5167000000000002
454.624 0.48329999999999984
454.93 0.41669999999999874
455.236 0.5
455.541 0.3999999999999986
455.845 0.5167000000000002
456.151 0.34999999999999787
456.457 0.48329999999999984
456.763 0.48329999999999984
457.067 0.46669999999999945
457.373 0.3332999999999977
457.679 0.4499999999999993
457.985 0.3999999999999986
458.29 0.3999999999999986
458.594 0.283299999999997
458.9 0.5167000000000002
459.206 0.34999999999999787
459.512 0.3832999999999984
459.815 0.25
460.121 0.5
460.427 0.3166999999999973
460.733 0.3332999999999977
461.036 0.3832999999999984
461.342 0.43329999999999913
461.648 0.366699999999998
461.954 0.41669999999999874
462.257 0.366699999999998
462.563 0.3832999999999984
462.869 0.41669999999999874
463.172 0.4499999999999993
463.478 0.25
463.784 0.3332999999999977
464.089 0.3832999999999984
464.393 0.29999999999999716
464.699 0.4499999999999993
465.004 0.366699999999998
465.308 0.43329999999999913
465.613 0.26670000000000016
465.919 0.366699999999998
466.225 0.533299999999997
466.528 0.34999999999999787
466.834 0.41669999999999874
467.139 0.46669999999999945
467.443 0.46669999999999945
467.748 0.46669999999999945
468.054 0.3999999999999986
468.357 0.5
468.663 0.3999999999999986
468.968 0.34999999999999787
469.272 0.366699999999998
469.577 0.283299999999997
469.883 0.366699999999998
470.186 0.283299999999997
470.492 0.366699999999998
470.797 0.41669999999999874
471.1 0.46669999999999945
471.406 0.41669999999999874
471.711 0.29999999999999716
472.014 0.283299999999997
472.32 0.34999999999999787
472.625 0.5
472.929 0.3332999999999977
473.234 0.533299999999997
473.539 0.5832999999999977
473.843 0.3832999999999984
474.148 0.5832999999999977
474.451 0.5499999999999972
474.756 0.5167000000000002
475.062 0.4499999999999993
475.365 0.46669999999999945
475.67 0.4499999999999993
475.973 0.5
476.279 0.5666999999999973
476.584 0.75
476.887 0.6999999999999993
477.192 0.7667000000000002
477.498 0.7999999999999972
477.801 0.7999999999999972
478.106 0.7332999999999998
478.409 0.8999999999999986
478.714 0.7999999999999972
479.017 0.8166999999999973
479.322 0.866699999999998
479.628 0.8832999999999984
479.931 0.7999999999999972
480.236 0.7166999999999994
480.539 0.8832999999999984
480.844 0.8999999999999986
481.147 0.866699999999998
481.452 1.0167000000000002
481.757 0.9666999999999994
482.06 0.7667000000000002
482.365 0.783299999999997
482.668 0.7667000000000002
482.973 0.8832999999999984
483.276 0.8166999999999973
483.581 0.7667000000000002
483.884 0.6499999999999986
484.189 0.5999999999999979
484.494 0.6332999999999984
484.797 0.4499999999999993
485.102 0.6332999999999984
485.405 0.5167000000000002
485.71 0.3832999999999984
486.013 0.46669999999999945
486.318 0.46669999999999945
486.621 0.4499999999999993
486.925 0.5
487.228 0.48329999999999984
487.533 0.3832999999999984
487.836 0.5832999999999977
488.141 0.3332999999999977
488.444 0.43329999999999913
488.748 0.4499999999999993
489.051 0.533299999999997
489.356 0.4499999999999993
489.659 0.25
489.964 0.533299999999997
490.266 0.5
490.571 0.3166999999999973
490.874 0.34999999999999787
491.179 0.3332999999999977
491.481 0.46669999999999945
491.786 0.41669999999999874
492.089 0.29999999999999716
492.393 0.3999999999999986
492.696 0.3832999999999984
493.001 0.3999999999999986
493.303 0.366699999999998
493.606 0.43329999999999913
493.911 0.21669999999999945
494.213 0.3332999999999977
494.518 0.5
494.821 0.366699999999998
495.125 0.3999999999999986
495.428 0.366699999999998
495.732 0.3832999999999984
496.035 0.3832999999999984
496.337 0.41669999999999874
496.642 0.4499999999999993
496.945 0.3832999999999984
497.249 0.29999999999999716
497.552 0.26670000000000016
497.856 0.34999999999999787
498.159 0.3999999999999986
498.461 0.18329999999999913
498.766 0.283299999999997
499.068 0.3832999999999984
499.372 0.3832999999999984
499.675 0.34999999999999787
499.977 0.3332999999999977
500.282 0.25
500.584 0.3832999999999984
500.889 0.3999999999999986
501.191 0.26670000000000016
501.493 0.3332999999999977
501.798 0.29999999999999716
502.1 0.46669999999999945
502.402 0.366699999999998
502.707 0.34999999999999787
503.009 0.43329999999999913
503.314 0.3999999999999986
503.616 0.34999999999999787
503.918 0.283299999999997
504.222 0.3332999999999977
504.525 0.29999999999999716
504.827 0.3332999999999977
505.131 0.43329999999999913
505.433 0.3332999999999977
505.736 0.5
506.04 0.3332999999999977
506.342 0.283299999999997
506.646 0.3832999999999984
506.949 0.3999999999999986
507.251 0.4499999999999993
507.555 0.34999999999999787
507.857 0.3332999999999977
508.159 0.3166999999999973
508.461 0.366699999999998
508.766 0.3832999999999984
509.068 0.25
509.37 0.3166999999999973
509.674 0.366699999999998
509.976 0.3166999999999973
510.278 0.3332999999999977
510.582 0.43329999999999913
510.884 0.3166999999999973
511.186 0.3999999999999986
511.49 0.34999999999999787
511.792 0.5
512.094 0.26670000000000016
512.396 0.26670000000000016
512.701 0.3999999999999986
513.003 0.3332999999999977
513.305 0.3332999999999977
513.609 0.3166999999999973
513.91 0.366699999999998
514.212 0.26670000000000016
514.514 0.23329999999999984
514.818 0.366699999999998
515.12 0.1999999999999993
515.422 0.48329999999999984
515.724 0.25
516.028 0.366699999999998
516.33 0.29999999999999716
516.632 0.18329999999999913
516.934 0.23329999999999984
517.237 0.34999999999999787
517.539 0.34999999999999787
517.841 0.41669999999999874
518.143 0.366699999999998
518.447 0.5
518.749 0.3166999999999973
519.05 0.29999999999999716
519.352 0.533299999999997
519.656 0.3332999999999977
519.958 0.366699999999998
520.26 0.283299999999997
520.561 0.25
520.863 0.283299999999997
521.167 0.3332999999999977
521.468 0.3332999999999977
521.77 0.533299999999997
522.072 0.34999999999999787
522.376 0.5
522.677 0.41669999999999874
522.979 0.3332999999999977
523.281 0.46669999999999945
523.582 0.41669999999999874
523.884 0.3332999999999977
524.187 0.3332999999999977
524.489 0.3332999999999977
524.791 0.3999999999999986
525.092 0.4499999999999993
525.394 0.34999999999999787
525.697 0.366699999999998
525.999 0.283299999999997
526.301 0.283299999999997
526.602 0.34999999999999787
526.904 0.29999999999999716
527.205 0.26670000000000016
527.507 0.46669999999999945
527.81 0.34999999999999787
528.112 0.3832999999999984
528.413 0.5167000000000002
528.715 0.5
529.016 0.43329999999999913
529.318 0.3999999999999986
529.619 0.3166999999999973
529.922 0.48329999999999984
530.224 0.41669999999999874
530.525 0.29999999999999716
530.827 0.41669999999999874
531.128 0.5832999999999977
531.429 0.48329999999999984
531.731 0.48329999999999984
532.032 0.3832999999999984
532.336 0.23329999999999984
532.637 0.3832999999999984
532.938 0.46669999999999945
533.24 0.5
533.541 0.29999999999999716
533.842 0.3166999999999973
534.143 0.34999999999999787
534.445 0.34999999999999787
534.746 0.48329999999999984
535.047 0.3999999999999986
535.351 0.34999999999999787
535.652 0.46669999999999945
535.953 0.283299999999997
536.254 0.26670000000000016
536.555 0.29999999999999716
536.857 0.29999999999999716
537.158 0.29999999999999716
537.459 0.25
537.76 0.3832999999999984
538.061 0.43329999999999913
538.362 0.21669999999999945
538.664 0.366699999999998
538.965 0.1999999999999993
539.266 0.3332999999999977
539.567 0.3332999999999977
539.868 0.3999999999999986
540.169 0.34999999999999787
540.472 0.29999999999999716
540.773 0.3999999999999986
541.074 0.29999999999999716
541.375 0.3999999999999986
541.677 0.21669999999999945
541.978 0.366699999999998
542.279 0.3166999999999973
542.58 0.29999999999999716
542.881 0.43329999999999913
543.182 0.34999999999999787
543.483 0.366699999999998
543.784 0.41669999999999874
544.085 0.43329999999999913
544.385 0.366699999999998
544.686 0.41669999999999874
544.987 0.34999999999999787
545.288 0.3999999999999986
545.589 0.533299999999997
545.89 0.366699999999998
546.191 0.29999999999999716
546.492 0.3332999999999977
546.793 0.48329999999999984
547.094 0.4499999999999993
547.394 0.43329999999999913
547.695 0.4499999999999993
547.996 0.41669999999999874
548.297 0.34999999999999787
548.596 0.3332999999999977
548.897 0.46669999999999945
549.197 0.5
549.498 0.34999999999999787
549.799 0.46669999999999945
550.1 0.34999999999999787
550.4 0.4499999999999993
550.701 0.48329999999999984
551.002 0.3832999999999984
551.303 0.5167000000000002
551.603 0.5666999999999973
551.904 0.5499999999999972
552.205 0.3832999999999984
552.505 0.43329999999999913
552.806 0.5499999999999972
553.107 0.5167000000000002
553.407 0.5832999999999977
553.706 0.5832999999999977
554.007 0.5666999999999973
554.307 0.5832999999999977
554.608 0.5832999999999977
554.909 0.616699999999998
555.209 0.5666999999999973
555.51 0.6499999999999986
555.81 0.5832999999999977
556.111 0.5666999999999973
556.411 0.533299999999997
556.71 0.75
557.01 0.5499999999999972
557.311 0.533299999999997
557.612 0.5167000000000002
557.912 0.6499999999999986
558.213 0.5167000000000002
558.513 0.5167000000000002
558.813 0.5832999999999977
559.112 0.5999999999999979
559.412 0.533299999999997
559.713 0.48329999999999984
560.013 0.3999999999999986
560.314 0.3999999999999986
560.614 0.43329999999999913
560.914 0.41669999999999874
561.213 0.48329999999999984
561.513 0.5
561.814 0.616699999999998
562.114 0.5832999999999977
562.414 0.46669999999999945
562.715 0.4499999999999993
563.015 0.41669999999999874
563.313 0.43329999999999913
563.614 0.3999999999999986
563.914 0.5832999999999977
564.214 0.46669999999999945
564.515 0.34999999999999787
564.813 0.48329999999999984
565.113 0.41669999999999874
565.413 0.46669999999999945
565.714 0.43329999999999913
566.014 0.46669999999999945
566.312 0.3832999999999984
566.612 0.29999999999999716
566.912 0.5167000000000002
567.213 0.46669999999999945
567.513 0.3999999999999986
567.811 0.3999999999999986
568.111 0.34999999999999787
568.411 0.3332999999999977
568.712 0.5832999999999977
569.012 0.5832999999999977
569.31 0.366699999999998
569.61 0.29999999999999716
569.91 0.5
570.21 0.366699999999998
570.508 0.3832999999999984
570.808 0.43329999999999913
571.108 0.29999999999999716
571.408 0.3999999999999986
571.706 0.3332999999999977
572.006 0.3832999999999984
572.306 0.34999999999999787
572.607 0.48329999999999984
572.904 0.3166999999999973
573.204 0.43329999999999913
573.505 0.41669999999999874
573.805 0.5
574.102 0.3166999999999973
574.402 0.3166999999999973
574.702 0.34999999999999787
575.002 0.4499999999999993
575.3 0.26670000000000016
575.6 0.34999999999999787
575.9 0.3999999999999986
576.198 0.46669999999999945
576.498 0.41669999999999874
576.798 0.5
577.098 0.283299999999997
577.395 0.34999999999999787
577.695 0.3999999999999986
577.995 0.26670000000000016
578.293 0.29999999999999716
578.593 0.46669999999999945
578.893 0.4499999999999993
579.19 0.29999999999999716
579.49 0.43329999999999913
579.79 0.48329999999999984
580.088 0.29999999999999716
580.387 0.41669999999999874
580.687 0.26670000000000016
580.985 0.41669999999999874
581.285 0.3832999999999984
581.584 0.366699999999998
581.882 0.4499999999999993
582.182 0.5
582.482 0.5
582.779 0.34999999999999787
583.079 0.29999999999999716
583.378 0.4499999999999993
583.676 0.3166999999999973
583.976 0.3999999999999986
584.275 0.25
584.573 0.3999999999999986
584.873 0.3999999999999986
585.17 0.1999999999999993
585.47 0.3166999999999973
585.769 0.3832999999999984
586.067 0.4499999999999993
586.367 0.29999999999999716
586.666 0.3332999999999977
586.964 0.3999999999999986
587.263 0.23329999999999984
587.561 0.3832999999999984
587.86 0.34999999999999787
588.16 0.5
588.457 0.3999999999999986
588.757 0.3999999999999986
589.054 0.3832999999999984
589.354 0.34999999999999787
589.653 0.3332999999999977
589.951 0.41669999999999874
590.25 0.26670000000000016
590.547 0.41669999999999874
590.847 0.3832999999999984
591.144 0.533299999999997
591.444 0.26670000000000016
591.743 0.48329999999999984
592.04 0.29999999999999716
592.34 0.3166999999999973
592.637 0.43329999999999913
592.936 0.3166999999999973
593.234 0.5
593.533 0.3166999999999973
593.832 0.41669999999999874
594.13 0.3832999999999984
594.429 0.29999999999999716
594.726 0.3999999999999986
595.026 0.3832999999999984
595.323 0.3999999999999986
595.622 0.3832999999999984
595.919 0.3832999999999984
596.219 0.46669999999999945
596.516 0.41669999999999874
596.815 0.41669999999999874
597.112 0.3999999999999986
597.411 0.3999999999999986
597.709 0.43329999999999913
598.008 0.3166999999999973
598.305 0.366699999999998
598.604 0.3999999999999986
598.901 0.3332999999999977
599.2 0.3832999999999984
599.497 0.3999999999999986
599.797 0.21669999999999945
600.094 0.23329999999999984
600.393 0.3332999999999977
600.69 0.3166999999999973
600.989 0.3166999999999973
601.286 0.3999999999999986
601.585 0.48329999999999984
601.882 0.3999999999999986
602.181 0.4499999999999993
602.478 0.34999999999999787
602.777 0.366699999999998
603.074 0.5167000000000002
603.373 0.3999999999999986
603.67 0.3832999999999984
603.969 0.3166999999999973
604.266 0.21669999999999945
604.563 0.5
604.862 0.3832999999999984
605.159 0.34999999999999787
605.458 0.29999999999999716
605.755 0.41669999999999874
606.054 0.366699999999998
606.351 0.3999999999999986
606.65 0.43329999999999913
606.946 0.43329999999999913
607.243 0.4499999999999993
607.542 0.41669999999999874
607.839 0.43329999999999913
608.138 0.3332999999999977
608.435 0.46669999999999945
608.732 0.34999999999999787
609.03 0.48329999999999984
609.327 0.46669999999999945
609.626 0.5832999999999977
609.923 0.5832999999999977
610.22 0.41669999999999874
610.518 0.5499999999999972
610.815 0.5832999999999977
611.114 0.43329999999999913
611.411 0.5167000000000002
611.707 0.3832999999999984
612.006 0.3999999999999986
612.303 0.3832999999999984
612.601 0.5167000000000002
612.898 0.5167000000000002
613.195 0.46669999999999945
613.493 0.41669999999999874
613.79 0.5
614.087 0.5167000000000002
614.385 0.5499999999999972
614.682 0.41669999999999874
614.979 0.366699999999998
615.277 0.5666999999999973
615.574 0.5666999999999973
615.87 0.3166999999999973
616.169 0.48329999999999984
616.466 0.46669999999999945
616.764 0.5666999999999973
617.061 0.366699999999998
617.357 0.5
617.656 0.533299999999997
617.952 0.46669999999999945
618.249 0.25
618.545 0.6332999999999984
618.844 0.4499999999999993
619.14 0.5999999999999979
619.437 0.41669999999999874
619.735 0.5167000000000002
620.032 0.533299999999997
620.328 0.366699999999998
620.626 0.4499999999999993
620.923 0.3166999999999973
621.219 0.43329999999999913
621.518 0.366699999999998
621.814 0.366699999999998
622.11 0.3832999999999984
622.407 0.3332999999999977
622.705 0.5167000000000002
623.002 0.23329999999999984
623.298 0.5
623.594 0.41669999999999874
623.893 0.29999999999999716
624.189 0.43329999999999913
624.485 0.3999999999999986
624.784 0.34999999999999787
625.08 0.41669999999999874
625.376 0.3999999999999986
625.672 0.366699999999998
625.971 0.533299999999997
626.267 0.3332999999999977
626.563 0.43329999999999913
626.859 0.3832999999999984
627.158 0.3166999999999973
627.454 0.533299999999997
627.75 0.4499999999999993
628.046 0.4499999999999993
628.342 0.43329999999999913
628.641 0.3166999999999973
628.937 0.43329999999999913
629.233 0.41669999999999874
629.529 0.4499999999999993
629.827 0.3832999999999984
630.123 0.5
630.419 0.4499999999999993
630.715 0.366699999999998
631.011 0.283299999999997
631.31 0.29999999999999716
631.606 0.3166999999999973
631.902 0.3999999999999986
632.198 0.3166999999999973
632.494 0.366699999999998
632.792 0.3332999999999977
633.088 0.34999999999999787
633.384 0.29999999999999716
633.68 0.3832999999999984
633.976 0.5167000000000002
634.272 0.34999999999999787
634.57 0.43329999999999913
634.866 0.21669999999999945
635.162 0.3999999999999986
635.458 0.366699999999998
635.754 0.3999999999999986
636.05 0.3832999999999984
636.347 0.29999999999999716
636.643 0.5167000000000002
636.939 0.3332999999999977
637.235 0.3999999999999986
637.531 0.4499999999999993
637.827 0.3166999999999973
638.123 0.46669999999999945
638.421 0.48329999999999984
638.716 0.41669999999999874
639.012 0.5167000000000002
639.308 0.3832999999999984
639.604 0.29999999999999716
639.9 0.43329999999999913
640.195 0.3332999999999977
640.491 0.283299999999997
640.789 0.5
641.085 0.3332999999999977
641.381 0.43329999999999913
641.676 0.3999999999999986
641.972 0.3999999999999986
642.268 0.34999999999999787
642.563 0.46669999999999945
642.859 0.43329999999999913
643.155 0.3166999999999973
643.451 0.5
643.746 0.25
644.044 0.48329999999999984
644.34 0.48329999999999984
644.635 0.3166999999999973
644.931 0.41669999999999874
645.227 0.3166999999999973
645.522 0.533299999999997
645.818 0.5499999999999972
646.113 0.5499999999999972
646.409 0.3166999999999973
646.704 0.4499999999999993
647.0 0.366699999999998
647.296 0.46669999999999945
647.591 0.3999999999999986
647.887 0.3332999999999977
648.182 0.4499999999999993
648.478 0.4499999999999993
648.773 0.3999999999999986
649.069 0.34999999999999787
649.366 0.3999999999999986
649.662 0.366699999999998
649.957 0.3999999999999986
650.253 0.3832999999999984
650.548 0.5
650.844 0.5
651.139 0.4499999999999993
651.434 0.3832999999999984
651.73 0.34999999999999787
652.025 0.41669999999999874
652.321 0.533299999999997
652.616 0.46669999999999945
652.911 0.48329999999999984
653.207 0.46669999999999945
653.502 0.533299999999997
653.797 0.533299999999997
654.093 0.46669999999999945
654.388 0.48329999999999984
654.683 0.41669999999999874
654.979 0.5666999999999973
655.274 0.3999999999999986
655.567 0.5167000000000002
655.863 0.5832999999999977
656.158 0.4499999999999993
656.453 0.4499999999999993
656.748 0.5167000000000002
657.044 0.5999999999999979
657.339 0.5666999999999973
657.634 0.5999999999999979
657.929 0.6666999999999987
658.224 0.5832999999999977
658.52 0.5
658.815 0.6332999999999984
659.11 0.6332999999999984
659.405 0.6832999999999991
659.7 0.6499999999999986
659.995 0.6332999999999984
660.291 0.5832999999999977
660.586 0.7667000000000002
660.879 0.7667000000000002
661.174 0.6499999999999986
661.469 0.5999999999999979
661.764 0.7166999999999994
662.059 0.7166999999999994
662.354 0.6332999999999984
662.649 0.5499999999999972
662.944 0.616699999999998
663.239 0.7332999999999998
663.534 0.5832999999999977
663.83 0.6332999999999984
664.122 0.46669999999999945
664.417 0.5499999999999972
664.713 0.5499999999999972
665.008 0.616699999999998
665.302 0.6499999999999986
665.597 0.533299999999997
665.892 0.533299999999997
666.187 0.5167000000000002
666.48 0.5832999999999977
666.775 0.6332999999999984
667.07 0.48329999999999984
667.365 0.5499999999999972
667.66 0.533299999999997
667.955 0.5499999999999972
668.25 0.46669999999999945
668.542 0.48329999999999984
668.837 0.5
669.132 0.46669999999999945
669.427 0.43329999999999913
669.722 0.46669999999999945
670.017 0.48329999999999984
670.31 0.41669999999999874
670.604 0.4499999999999993
670.899 0.4499999999999993
671.194 0.616699999999998
671.489 0.283299999999997
671.783 0.3999999999999986
672.076 0.48329999999999984
672.371 0.3832999999999984
672.666 0.46669999999999945
672.96 0.41669999999999874
673.255 0.5167000000000002
673.548 0.4499999999999993
673.842 0.3832999999999984
674.137 0.46669999999999945
674.432 0.3832999999999984
674.727 0.4499999999999993
675.019 0.41669999999999874
675.314 0.4499999999999993
675.608 0.366699999999998
675.903 0.41669999999999874
676.196 0.283299999999997
676.49 0.3832999999999984
676.785 0.43329999999999913
677.079 0.3832999999999984
677.374 0.366699999999998
677.667 0.48329999999999984
677.961 0.3332999999999977
678.256 0.366699999999998
678.55 0.34999999999999787
678.843 0.48329999999999984
679.137 0.4499999999999993
679.432 0.366699999999998
679.726 0.43329999999999913
680.019 0.3332999999999977
680.313 0.366699999999998
680.608 0.3832999999999984
680.902 0.3832999999999984
681.195 0.34999999999999787
681.489 0.366699999999998
681.784 0.3832999999999984
682.076 0.48329999999999984
682.37 0.41669999999999874
682.665 0.3332999999999977
682.959 0.48329999999999984
683.252 0.34999999999999787
683.546 0.3332999999999977
683.84 0.366699999999998
684.133 0.5999999999999979
684.427 0.43329999999999913
684.721 0.283299999999997
685.014 0.533299999999997
685.308 0.366699999999998
685.602 0.533299999999997
685.895 0.3332999999999977
686.189 0.366699999999998
686.483 0.3832999999999984
686.778 0.34999999999999787
687.07 0.41669999999999874
687.364 0.48329999999999984
687.658 0.3166999999999973
687.951 0.3832999999999984
688.245 0.3999999999999986
688.537 0.46669999999999945
688.831 0.34999999999999787
689.125 0.34999999999999787
689.418 0.3332999999999977
689.712 0.29999999999999716
690.006 0.4499999999999993
690.298 0.34999999999999787
690.592 0.26670000000000016
690.886 0.3999999999999986
691.178 0.3166999999999973
691.473 0.34999999999999787
691.767 0.366699999999998
692.059 0.43329999999999913
692.353 0.29999999999999716
692.645 0.3999999999999986
692.939 0.29999999999999716
693.233 0.366699999999998
693.525 0.46669999999999945
693.819 0.5
694.111 0.25
694.405 0.3832999999999984
694.699 0.3832999999999984
694.991 0.366699999999998
695.285 0.29999999999999716
695.577 0.34999999999999787
695.871 0.3166999999999973
696.165 0.29999999999999716
696.457 0.3332999999999977
696.751 0.533299999999997
697.043 0.3332999999999977
697.337 0.34999999999999787
697.629 0.3832999999999984
697.923 0.3832999999999984
698.217 0.43329999999999913
698.509 0.3999999999999986
698.802 0.43329999999999913
699.094 0.43329999999999913
699.388 0.34999999999999787
699.68 0.48329999999999984
699.974 0.3832999999999984
700.266 0.43329999999999913
700.56 0.34999999999999787
700.853 0.3999999999999986
701.145 0.283299999999997
701.439 0.46669999999999945
701.731 0.3832999999999984
702.025 0.3166999999999973
702.316 0.46669999999999945
702.61 0.3166999999999973
702.902 0.29999999999999716
703.196 0.41669999999999874
703.487 0.29999999999999716
703.781 0.5
704.073 0.3166999999999973
704.367 0.43329999999999913
704.658 0.3832999999999984
704.952 0.23329999999999984
705.244 0.3832999999999984
705.537 0.43329999999999913
705.829 0.29999999999999716
706.122 0.3332999999999977
706.414 0.43329999999999913
706.708 0.43329999999999913
706.999 0.283299999999997
707.293 0.23329999999999984
