# Created: 2019-11-28 11:43:34.157660
# rshift intensity
60.1532 0.10499999999999998
60.4768 0.09833000000000003
60.8025 0.11832999999999982
61.1281 0.11332999999999993
61.4517 0.11167000000000016
61.7773 0.10499999999999998
62.1029 0.12833000000000006
62.4286 0.11167000000000016
62.752 0.09833000000000003
63.0776 0.11332999999999993
63.4032 0.10999999999999988
63.7267 0.11332999999999993
64.0522 0.11499999999999977
64.3778 0.10000000000000009
64.7012 0.10666999999999982
65.0267 0.0833299999999999
65.3523 0.11332999999999993
65.6778 0.11167000000000016
66.0011 0.10666999999999982
66.3266 0.1200000000000001
66.6521 0.10833000000000004
66.9754 0.11667000000000005
67.3009 0.09000000000000008
67.6263 0.11667000000000005
67.9496 0.10833000000000004
68.275 0.11667000000000005
68.6005 0.12333000000000016
68.9237 0.14666999999999986
69.2491 0.18500000000000005
69.5745 0.2200000000000002
69.8977 0.2183299999999999
70.2231 0.26332999999999984
70.5463 0.3016700000000001
70.8716 0.29000000000000004
71.1969 0.29000000000000004
71.5201 0.3133300000000001
71.8454 0.2733300000000001
72.1707 0.2933300000000001
72.4938 0.2816700000000001
72.8191 0.2566700000000002
73.1443 0.25333000000000006
73.4674 0.23667000000000016
73.7927 0.20000000000000018
74.1157 0.20833000000000013
74.4409 0.2033299999999998
74.7661 0.16500000000000004
75.0892 0.1566700000000001
75.4144 0.1566700000000001
75.7395 0.16000000000000014
76.0625 0.125
76.3877 0.10666999999999982
76.7107 0.125
77.0358 0.10332999999999992
77.3609 0.11332999999999993
77.6839 0.09499999999999997
78.0089 0.0833299999999999
78.3319 0.07499999999999996
78.6569 0.08166999999999991
78.9798 0.07667000000000002
79.3049 0.08499999999999996
79.6299 0.0716699999999999
79.9528 0.07833000000000001
80.2778 0.07499999999999996
80.6006 0.09166999999999992
80.9256 0.08166999999999991
81.2506 0.07833000000000001
81.5734 0.08166999999999991
81.8984 0.07000000000000006
82.2212 0.06833
82.5461 0.0733299999999999
82.8689 0.06166999999999989
83.1938 0.05832999999999999
83.5165 0.0716699999999999
83.8414 0.0833299999999999
84.1663 0.08667000000000002
84.489 0.06499999999999995
84.8139 0.06000000000000005
85.1366 0.0716699999999999
85.4614 0.05832999999999999
85.7841 0.06166999999999989
86.1089 0.08499999999999996
86.4315 0.05832999999999999
86.7563 0.09000000000000008
87.0789 0.05667
87.4037 0.07000000000000006
87.7263 0.09667000000000003
88.051 0.05667
88.3736 0.08499999999999996
88.6983 0.06499999999999995
89.0209 0.09166999999999992
89.3456 0.07000000000000006
89.6681 0.07667000000000002
89.9928 0.07499999999999996
90.3153 0.06499999999999995
90.64 0.06833
90.9625 0.06667000000000001
91.2871 0.06000000000000005
91.6096 0.05499999999999994
91.9342 0.06499999999999995
92.2566 0.08667000000000002
92.5812 0.0716699999999999
92.9036 0.0733299999999999
93.2282 0.07499999999999996
93.5506 0.06000000000000005
93.8751 0.07667000000000002
94.1975 0.06332999999999989
94.522 0.07667000000000002
94.8444 0.07667000000000002
95.1689 0.041669999999999874
95.4912 0.06166999999999989
95.8157 0.06499999999999995
96.138 0.05332999999999988
96.4603 0.06332999999999989
96.7848 0.05332999999999988
97.107 0.0716699999999999
97.4314 0.06499999999999995
97.7537 0.05499999999999994
98.0781 0.06332999999999989
98.4003 0.06499999999999995
98.7247 0.06833
99.0469 0.07667000000000002
99.3691 0.05499999999999994
99.6935 0.06667000000000001
100.016 0.08833000000000002
100.34 0.0716699999999999
100.662 0.09667000000000003
100.986 0.07000000000000006
101.309 0.08833000000000002
101.631 0.08499999999999996
101.955 0.07833000000000001
102.277 0.09332999999999991
102.601 0.10000000000000009
102.923 0.08000000000000007
103.245 0.08499999999999996
103.57 0.10499999999999998
103.892 0.08166999999999991
104.216 0.08833000000000002
104.538 0.08667000000000002
104.86 0.07667000000000002
105.184 0.06833
105.506 0.10332999999999992
105.828 0.06000000000000005
106.152 0.07667000000000002
106.474 0.06833
106.798 0.05667
107.12 0.05499999999999994
107.442 0.0716699999999999
107.766 0.06833
108.088 0.0733299999999999
108.41 0.05332999999999988
108.734 0.05667
109.056 0.05832999999999999
109.378 0.05166999999999988
109.702 0.050000000000000044
110.024 0.06166999999999989
110.347 0.03666999999999998
110.669 0.04333000000000009
110.991 0.05832999999999999
111.315 0.06000000000000005
111.637 0.06833
111.959 0.041669999999999874
112.282 0.05332999999999988
112.604 0.06000000000000005
112.926 0.06667000000000001
113.25 0.048329999999999984
113.572 0.04666999999999999
113.893 0.03666999999999998
114.215 0.05499999999999994
114.539 0.06667000000000001
114.86 0.06667000000000001
115.182 0.07000000000000006
115.506 0.048329999999999984
115.828 0.05667
116.149 0.05499999999999994
116.473 0.06166999999999989
116.795 0.0733299999999999
117.116 0.04499999999999993
117.44 0.04333000000000009
117.761 0.06332999999999989
118.083 0.05332999999999988
118.405 0.05832999999999999
118.728 0.05332999999999988
119.05 0.05332999999999988
119.371 0.06332999999999989
119.693 0.06000000000000005
120.016 0.040000000000000036
120.338 0.06166999999999989
120.659 0.04333000000000009
120.983 0.05832999999999999
121.304 0.05332999999999988
121.626 0.03333000000000008
121.947 0.06166999999999989
122.271 0.04333000000000009
122.592 0.038329999999999975
122.914 0.03499999999999992
123.235 0.0716699999999999
123.559 0.06499999999999995
123.88 0.05667
124.201 0.05499999999999994
124.523 0.05832999999999999
124.846 0.05166999999999988
125.167 0.0716699999999999
125.489 0.0733299999999999
125.81 0.07667000000000002
126.131 0.07833000000000001
126.455 0.07499999999999996
126.776 0.08166999999999991
127.097 0.07833000000000001
127.418 0.08000000000000007
127.742 0.0833299999999999
128.063 0.07833000000000001
128.384 0.06332999999999989
128.705 0.07000000000000006
129.027 0.06833
129.35 0.06667000000000001
129.671 0.07833000000000001
129.992 0.06166999999999989
130.313 0.06833
130.634 0.05332999999999988
130.958 0.06000000000000005
131.279 0.06000000000000005
131.6 0.05667
131.921 0.06166999999999989
132.242 0.05166999999999988
132.563 0.06833
132.886 0.04333000000000009
133.207 0.04666999999999999
133.528 0.048329999999999984
133.849 0.05166999999999988
134.17 0.04666999999999999
134.491 0.05166999999999988
134.815 0.041669999999999874
135.136 0.06332999999999989
135.457 0.04666999999999999
135.777 0.05667
136.098 0.06499999999999995
136.419 0.05499999999999994
136.74 0.04666999999999999
137.063 0.05332999999999988
137.384 0.05832999999999999
137.705 0.07833000000000001
138.026 0.0716699999999999
138.347 0.050000000000000044
138.668 0.05667
138.989 0.06332999999999989
139.309 0.05332999999999988
139.632 0.06499999999999995
139.953 0.04666999999999999
140.274 0.06499999999999995
140.595 0.06000000000000005
140.916 0.05499999999999994
141.236 0.07499999999999996
141.557 0.041669999999999874
141.878 0.03499999999999992
142.199 0.048329999999999984
142.521 0.05832999999999999
142.842 0.05832999999999999
143.163 0.050000000000000044
143.483 0.07667000000000002
143.804 0.05166999999999988
144.125 0.05166999999999988
144.445 0.041669999999999874
144.766 0.06332999999999989
145.087 0.041669999999999874
145.407 0.040000000000000036
145.728 0.05166999999999988
146.049 0.030000000000000027
146.371 0.05166999999999988
146.692 0.05832999999999999
147.012 0.04499999999999993
147.333 0.04499999999999993
147.654 0.05332999999999988
147.974 0.05332999999999988
148.295 0.03333000000000008
148.615 0.05499999999999994
148.936 0.04333000000000009
149.256 0.04666999999999999
149.577 0.05667
149.897 0.05332999999999988
150.218 0.05166999999999988
150.538 0.03499999999999992
150.858 0.05332999999999988
151.179 0.05832999999999999
151.499 0.038329999999999975
151.82 0.05499999999999994
152.14 0.050000000000000044
152.46 0.038329999999999975
152.781 0.041669999999999874
153.101 0.04666999999999999
153.422 0.03499999999999992
153.742 0.05499999999999994
154.062 0.06166999999999989
154.382 0.04499999999999993
154.703 0.05499999999999994
155.023 0.05332999999999988
155.343 0.05832999999999999
155.664 0.030000000000000027
155.984 0.06000000000000005
156.304 0.05332999999999988
156.624 0.04666999999999999
156.945 0.04499999999999993
157.265 0.05667
157.585 0.04666999999999999
157.905 0.06499999999999995
158.225 0.05499999999999994
158.546 0.06332999999999989
158.866 0.04666999999999999
159.186 0.04333000000000009
159.506 0.06332999999999989
159.826 0.06332999999999989
160.146 0.05832999999999999
160.466 0.06499999999999995
160.786 0.06667000000000001
161.107 0.08833000000000002
161.427 0.08166999999999991
161.747 0.0733299999999999
162.067 0.05667
162.387 0.10166999999999993
162.707 0.07499999999999996
163.027 0.09000000000000008
163.347 0.07499999999999996
163.665 0.06499999999999995
163.985 0.08499999999999996
164.305 0.08000000000000007
164.625 0.08499999999999996
164.945 0.09332999999999991
165.265 0.06166999999999989
165.584 0.07000000000000006
165.904 0.05499999999999994
166.224 0.06833
166.544 0.05499999999999994
166.864 0.06166999999999989
167.184 0.06833
167.502 0.05499999999999994
167.822 0.06166999999999989
168.141 0.05499999999999994
168.461 0.06667000000000001
168.781 0.05332999999999988
169.101 0.05832999999999999
169.421 0.05499999999999994
169.74 0.048329999999999984
170.06 0.05499999999999994
170.378 0.04499999999999993
170.698 0.050000000000000044
171.017 0.04333000000000009
171.337 0.05332999999999988
171.657 0.04333000000000009
171.977 0.048329999999999984
172.296 0.06499999999999995
172.616 0.05667
172.934 0.04333000000000009
173.253 0.040000000000000036
173.573 0.05667
173.892 0.030000000000000027
174.212 0.03499999999999992
174.532 0.04666999999999999
174.851 0.05332999999999988
175.169 0.04333000000000009
175.488 0.04666999999999999
175.808 0.05499999999999994
176.128 0.040000000000000036
176.447 0.040000000000000036
176.767 0.041669999999999874
177.084 0.04499999999999993
177.404 0.050000000000000044
177.723 0.05832999999999999
178.043 0.041669999999999874
178.362 0.04333000000000009
178.679 0.05667
178.999 0.040000000000000036
179.318 0.03499999999999992
179.638 0.050000000000000044
179.957 0.048329999999999984
180.275 0.05332999999999988
180.594 0.03499999999999992
180.913 0.04333000000000009
181.233 0.05332999999999988
181.552 0.04666999999999999
181.869 0.038329999999999975
182.189 0.03167000000000009
182.508 0.05667
182.828 0.04499999999999993
183.147 0.038329999999999975
183.464 0.05332999999999988
183.783 0.04333000000000009
184.103 0.03666999999999998
184.422 0.04499999999999993
184.739 0.04333000000000009
185.058 0.06833
185.378 0.05499999999999994
185.697 0.040000000000000036
186.014 0.05832999999999999
186.333 0.0733299999999999
186.652 0.05499999999999994
186.972 0.06499999999999995
187.289 0.050000000000000044
187.608 0.04333000000000009
187.927 0.05499999999999994
188.246 0.06499999999999995
188.563 0.0
188.882 0.05499999999999994
189.201 0.038329999999999975
189.521 0.03666999999999998
189.838 0.040000000000000036
190.157 0.05332999999999988
190.476 0.04333000000000009
190.793 0.041669999999999874
191.112 0.05832999999999999
191.431 0.07000000000000006
191.75 0.05332999999999988
192.067 0.038329999999999975
192.386 0.030000000000000027
192.705 0.041669999999999874
193.022 0.05499999999999994
193.341 0.028329999999999966
193.66 0.05667
193.978 0.04666999999999999
194.295 0.05667
194.614 0.048329999999999984
194.933 0.04499999999999993
195.25 0.05166999999999988
195.569 0.040000000000000036
195.888 0.06166999999999989
196.205 0.04333000000000009
196.523 0.04333000000000009
196.842 0.048329999999999984
197.159 0.040000000000000036
197.478 0.048329999999999984
197.797 0.03499999999999992
198.113 0.05667
198.432 0.05667
198.751 0.048329999999999984
199.068 0.05166999999999988
199.386 0.06000000000000005
199.705 0.04333000000000009
200.022 0.05499999999999994
200.341 0.04333000000000009
200.657 0.03666999999999998
200.976 0.050000000000000044
201.295 0.040000000000000036
201.611 0.06667000000000001
201.93 0.05332999999999988
202.248 0.05832999999999999
202.565 0.05166999999999988
202.884 0.048329999999999984
203.202 0.05332999999999988
203.519 0.05832999999999999
203.837 0.06499999999999995
204.154 0.06332999999999989
204.473 0.05667
204.791 0.05499999999999994
205.108 0.05667
205.426 0.05832999999999999
205.743 0.050000000000000044
206.061 0.040000000000000036
206.38 0.05667
206.696 0.06667000000000001
207.015 0.06833
207.331 0.06667000000000001
207.649 0.06000000000000005
207.966 0.06499999999999995
208.284 0.05499999999999994
208.603 0.05832999999999999
208.919 0.05667
209.238 0.05667
209.554 0.050000000000000044
209.872 0.05832999999999999
210.189 0.05332999999999988
210.507 0.06667000000000001
210.825 0.05499999999999994
211.142 0.04499999999999993
211.46 0.050000000000000044
211.776 0.06000000000000005
212.095 0.05499999999999994
212.411 0.05499999999999994
212.729 0.05332999999999988
213.045 0.06667000000000001
213.364 0.05499999999999994
213.682 0.05667
213.998 0.08833000000000002
214.316 0.06332999999999989
214.632 0.07000000000000006
214.951 0.048329999999999984
215.267 0.05499999999999994
215.585 0.08166999999999991
215.901 0.06332999999999989
216.219 0.06667000000000001
216.535 0.06667000000000001
216.854 0.05499999999999994
217.17 0.05499999999999994
217.488 0.05832999999999999
217.804 0.06332999999999989
218.122 0.06667000000000001
218.438 0.06833
218.756 0.05499999999999994
219.072 0.04666999999999999
219.39 0.05499999999999994
219.706 0.04666999999999999
220.024 0.06499999999999995
220.34 0.06166999999999989
220.658 0.06499999999999995
220.974 0.05166999999999988
221.292 0.0733299999999999
221.608 0.06332999999999989
221.926 0.08833000000000002
222.242 0.06166999999999989
222.558 0.06833
222.876 0.07000000000000006
223.191 0.0716699999999999
223.509 0.05832999999999999
223.825 0.05832999999999999
224.143 0.06166999999999989
224.459 0.07499999999999996
224.777 0.06000000000000005
225.093 0.0716699999999999
225.411 0.08166999999999991
225.726 0.06499999999999995
226.042 0.0733299999999999
226.36 0.0733299999999999
226.676 0.05332999999999988
226.993 0.0716699999999999
227.309 0.06667000000000001
227.627 0.06499999999999995
227.943 0.0833299999999999
228.258 0.06000000000000005
228.576 0.048329999999999984
228.892 0.0733299999999999
229.21 0.0716699999999999
229.525 0.05166999999999988
229.841 0.07000000000000006
230.159 0.0716699999999999
230.474 0.05832999999999999
230.792 0.07000000000000006
231.107 0.0833299999999999
231.423 0.07667000000000002
231.741 0.07000000000000006
232.056 0.0716699999999999
232.374 0.09332999999999991
232.689 0.08499999999999996
233.005 0.08667000000000002
233.322 0.06499999999999995
233.638 0.0733299999999999
233.953 0.07667000000000002
234.271 0.08833000000000002
234.586 0.0833299999999999
234.904 0.10332999999999992
235.219 0.08499999999999996
235.535 0.09499999999999997
235.852 0.09833000000000003
236.168 0.11167000000000016
236.483 0.10833000000000004
236.801 0.11167000000000016
237.116 0.09166999999999992
237.431 0.10332999999999992
237.749 0.09833000000000003
238.064 0.09499999999999997
238.38 0.125
238.697 0.12166999999999994
239.012 0.11832999999999982
239.328 0.10332999999999992
239.645 0.11167000000000016
239.96 0.10000000000000009
240.276 0.10833000000000004
240.593 0.11832999999999982
240.908 0.0833299999999999
241.223 0.09667000000000003
241.541 0.11499999999999977
241.856 0.10833000000000004
242.171 0.10833000000000004
242.488 0.09667000000000003
242.804 0.0833299999999999
243.119 0.08499999999999996
243.434 0.09499999999999997
243.751 0.08000000000000007
244.066 0.06499999999999995
244.382 0.06667000000000001
244.699 0.05499999999999994
245.014 0.06000000000000005
245.329 0.0733299999999999
245.644 0.0733299999999999
245.961 0.0733299999999999
246.276 0.05332999999999988
246.591 0.06499999999999995
246.908 0.07667000000000002
247.223 0.06332999999999989
247.538 0.06833
247.854 0.05667
248.171 0.06000000000000005
248.486 0.07667000000000002
248.801 0.07499999999999996
249.116 0.06667000000000001
249.433 0.0733299999999999
249.748 0.04666999999999999
250.062 0.06499999999999995
250.377 0.06332999999999989
250.694 0.05832999999999999
251.009 0.07000000000000006
251.324 0.07499999999999996
251.639 0.06833
251.954 0.07000000000000006
252.271 0.07499999999999996
252.586 0.0733299999999999
252.901 0.08000000000000007
253.215 0.06833
253.532 0.08000000000000007
253.847 0.07833000000000001
254.162 0.0733299999999999
254.477 0.07833000000000001
254.792 0.07499999999999996
255.108 0.06499999999999995
255.423 0.06833
255.738 0.06000000000000005
256.053 0.05832999999999999
256.367 0.07499999999999996
256.684 0.04333000000000009
256.999 0.07000000000000006
257.314 0.06667000000000001
257.628 0.06000000000000005
257.943 0.05332999999999988
258.258 0.05499999999999994
258.574 0.06166999999999989
258.889 0.07499999999999996
259.204 0.05332999999999988
259.518 0.0716699999999999
259.833 0.05499999999999994
260.147 0.06332999999999989
260.464 0.06833
260.779 0.040000000000000036
261.093 0.0733299999999999
261.408 0.06667000000000001
261.722 0.05667
262.037 0.0716699999999999
262.351 0.03167000000000009
262.668 0.05499999999999994
262.982 0.07499999999999996
263.297 0.06499999999999995
263.611 0.05832999999999999
263.926 0.0716699999999999
264.24 0.07499999999999996
264.555 0.05499999999999994
264.871 0.06000000000000005
265.186 0.06667000000000001
265.5 0.040000000000000036
265.815 0.05832999999999999
266.129 0.05499999999999994
266.443 0.05832999999999999
266.758 0.06332999999999989
267.072 0.06499999999999995
267.386 0.08833000000000002
267.701 0.07000000000000006
268.017 0.048329999999999984
268.331 0.06332999999999989
268.646 0.06000000000000005
268.96 0.0716699999999999
269.274 0.05832999999999999
269.589 0.06667000000000001
269.903 0.040000000000000036
270.217 0.06332999999999989
270.531 0.05832999999999999
270.846 0.0716699999999999
271.16 0.09000000000000008
271.474 0.0733299999999999
271.79 0.06833
272.105 0.06667000000000001
272.419 0.06667000000000001
272.733 0.05499999999999994
273.047 0.06667000000000001
273.361 0.08166999999999991
273.675 0.06499999999999995
273.989 0.048329999999999984
274.304 0.08833000000000002
274.618 0.07833000000000001
274.932 0.07000000000000006
275.246 0.08667000000000002
275.56 0.08833000000000002
275.874 0.07833000000000001
276.188 0.07667000000000002
276.502 0.07833000000000001
276.816 0.08166999999999991
277.13 0.09833000000000003
277.444 0.0833299999999999
277.758 0.07833000000000001
278.072 0.08833000000000002
278.386 0.08499999999999996
278.7 0.09000000000000008
279.014 0.09000000000000008
279.328 0.06499999999999995
279.642 0.07833000000000001
279.956 0.07667000000000002
280.27 0.07833000000000001
280.584 0.0716699999999999
280.897 0.07499999999999996
281.211 0.09166999999999992
281.525 0.07499999999999996
281.839 0.07499999999999996
282.153 0.06000000000000005
282.467 0.07667000000000002
282.781 0.08833000000000002
283.094 0.06166999999999989
283.408 0.07000000000000006
283.722 0.05332999999999988
284.036 0.06499999999999995
284.35 0.06667000000000001
284.663 0.07000000000000006
284.977 0.038329999999999975
285.291 0.06332999999999989
285.605 0.05499999999999994
285.918 0.05667
286.232 0.06166999999999989
286.546 0.05832999999999999
286.859 0.04499999999999993
287.171 0.07499999999999996
287.485 0.05832999999999999
287.798 0.06833
288.112 0.06833
288.426 0.06166999999999989
288.739 0.06000000000000005
289.053 0.05166999999999988
289.366 0.07833000000000001
289.68 0.06166999999999989
289.994 0.05667
290.307 0.05832999999999999
290.621 0.05667
290.934 0.05332999999999988
291.246 0.06166999999999989
291.559 0.05332999999999988
291.873 0.06499999999999995
292.186 0.05832999999999999
292.5 0.06667000000000001
292.813 0.06499999999999995
293.127 0.050000000000000044
293.44 0.06833
293.754 0.04666999999999999
294.065 0.04499999999999993
294.378 0.04666999999999999
294.692 0.06166999999999989
295.005 0.04333000000000009
295.319 0.0716699999999999
295.632 0.06667000000000001
295.945 0.0716699999999999
296.259 0.05832999999999999
296.57 0.07499999999999996
296.883 0.048329999999999984
297.197 0.06499999999999995
297.51 0.07499999999999996
297.823 0.07667000000000002
298.137 0.07833000000000001
298.45 0.06332999999999989
298.761 0.07833000000000001
299.074 0.05332999999999988
299.388 0.05499999999999994
299.701 0.040000000000000036
300.014 0.050000000000000044
300.327 0.05667
300.639 0.0733299999999999
300.952 0.06499999999999995
301.265 0.06000000000000005
301.578 0.06332999999999989
301.891 0.04333000000000009
302.202 0.04499999999999993
302.516 0.06332999999999989
302.829 0.04333000000000009
303.142 0.05166999999999988
303.455 0.06667000000000001
303.766 0.06166999999999989
304.079 0.041669999999999874
304.392 0.04333000000000009
304.705 0.05832999999999999
305.018 0.05166999999999988
305.329 0.08000000000000007
305.642 0.05499999999999994
305.955 0.06833
306.268 0.05166999999999988
306.582 0.05499999999999994
306.892 0.05332999999999988
307.205 0.05832999999999999
307.518 0.06499999999999995
307.831 0.05667
308.142 0.03333000000000008
308.455 0.06166999999999989
308.768 0.05499999999999994
309.081 0.06332999999999989
309.392 0.050000000000000044
309.705 0.05832999999999999
310.018 0.05667
310.331 0.07833000000000001
310.641 0.06166999999999989
310.954 0.06166999999999989
311.267 0.06332999999999989
311.58 0.06833
311.891 0.05832999999999999
312.204 0.06833
312.516 0.08000000000000007
312.829 0.06000000000000005
313.14 0.05667
313.453 0.05332999999999988
313.766 0.06332999999999989
314.076 0.07000000000000006
314.389 0.06667000000000001
314.702 0.0733299999999999
315.014 0.08166999999999991
315.325 0.08166999999999991
315.638 0.08667000000000002
315.951 0.06667000000000001
316.261 0.07000000000000006
316.574 0.06833
316.886 0.06499999999999995
317.197 0.07499999999999996
317.51 0.06667000000000001
317.822 0.09332999999999991
318.133 0.08667000000000002
318.445 0.07000000000000006
318.758 0.06667000000000001
319.069 0.08166999999999991
319.381 0.05667
319.694 0.0833299999999999
320.004 0.06833
320.317 0.07000000000000006
320.629 0.0733299999999999
320.94 0.09000000000000008
321.252 0.0833299999999999
321.565 0.09166999999999992
321.875 0.06332999999999989
322.188 0.10000000000000009
322.5 0.09000000000000008
322.811 0.08166999999999991
323.123 0.08000000000000007
323.436 0.09833000000000003
323.746 0.09833000000000003
324.058 0.10000000000000009
324.369 0.10166999999999993
324.681 0.12333000000000016
324.993 0.1299999999999999
325.304 0.10666999999999982
325.616 0.11167000000000016
325.928 0.14333000000000018
326.239 0.1499999999999999
326.551 0.125
326.861 0.13832999999999984
327.174 0.1349999999999998
327.486 0.15832999999999986
327.796 0.16666999999999987
328.108 0.1866699999999999
328.419 0.17832999999999988
328.731 0.17332999999999998
329.043 0.16999999999999993
329.353 0.17166999999999977
329.666 0.17499999999999982
329.976 0.18332999999999977
330.288 0.18332999999999977
330.598 0.17332999999999998
330.91 0.16666999999999987
331.223 0.16166999999999998
331.533 0.16999999999999993
331.845 0.14500000000000002
332.155 0.18000000000000016
332.467 0.14333000000000018
332.777 0.16666999999999987
333.089 0.15332999999999997
333.401 0.14000000000000012
333.711 0.1499999999999999
334.023 0.1299999999999999
334.333 0.12333000000000016
334.645 0.12833000000000006
334.955 0.12333000000000016
335.267 0.12666999999999984
335.577 0.10999999999999988
335.889 0.11332999999999993
336.199 0.09332999999999991
336.511 0.12666999999999984
336.821 0.12333000000000016
337.133 0.0833299999999999
337.443 0.11332999999999993
337.755 0.10499999999999998
338.065 0.10999999999999988
338.377 0.07499999999999996
338.687 0.12333000000000016
338.999 0.11832999999999982
339.311 0.1200000000000001
339.621 0.11499999999999977
339.93 0.11667000000000005
340.242 0.13167000000000018
340.552 0.11667000000000005
340.864 0.12166999999999994
341.174 0.12666999999999984
341.485 0.12833000000000006
341.795 0.11332999999999993
342.107 0.1299999999999999
342.417 0.14333000000000018
342.729 0.14166999999999996
343.038 0.15332999999999997
343.35 0.1683300000000001
343.66 0.1349999999999998
343.971 0.1566700000000001
344.281 0.15832999999999986
344.593 0.1499999999999999
344.903 0.1499999999999999
345.214 0.125
345.524 0.14166999999999996
345.833 0.1499999999999999
346.145 0.13667000000000007
346.455 0.14000000000000012
346.766 0.13332999999999995
347.076 0.14500000000000002
347.388 0.14166999999999996
347.697 0.15332999999999997
348.007 0.11167000000000016
348.318 0.10999999999999988
348.628 0.14333000000000018
348.939 0.12333000000000016
349.249 0.11499999999999977
349.561 0.125
349.87 0.13832999999999984
350.179 0.10833000000000004
350.491 0.12833000000000006
350.8 0.1349999999999998
351.112 0.11332999999999993
351.421 0.10499999999999998
351.731 0.14166999999999996
352.042 0.13332999999999995
352.352 0.11167000000000016
352.663 0.1349999999999998
352.973 0.09667000000000003
353.282 0.11499999999999977
353.593 0.11832999999999982
353.903 0.11667000000000005
354.212 0.13167000000000018
354.523 0.12833000000000006
354.833 0.13332999999999995
355.144 0.12833000000000006
355.453 0.10000000000000009
355.763 0.12833000000000006
356.074 0.09667000000000003
356.383 0.1200000000000001
356.693 0.11332999999999993
357.004 0.11832999999999982
357.313 0.10999999999999988
357.622 0.11332999999999993
357.934 0.09332999999999991
358.243 0.10666999999999982
358.552 0.11332999999999993
358.863 0.11332999999999993
359.172 0.10332999999999992
359.482 0.12833000000000006
359.793 0.09833000000000003
360.102 0.08499999999999996
360.411 0.10833000000000004
360.722 0.11832999999999982
361.031 0.09332999999999991
361.34 0.10332999999999992
361.652 0.11332999999999993
361.961 0.10999999999999988
362.27 0.09332999999999991
362.581 0.10000000000000009
362.89 0.09499999999999997
363.199 0.0833299999999999
363.51 0.11332999999999993
363.819 0.125
364.128 0.10166999999999993
364.437 0.10499999999999998
364.748 0.10332999999999992
365.057 0.09166999999999992
365.366 0.11167000000000016
365.677 0.10499999999999998
365.986 0.11667000000000005
366.295 0.1200000000000001
366.604 0.1200000000000001
366.915 0.10332999999999992
367.224 0.09000000000000008
367.533 0.09833000000000003
367.841 0.10833000000000004
368.152 0.11332999999999993
368.461 0.12166999999999994
368.77 0.09833000000000003
369.079 0.11667000000000005
369.39 0.09667000000000003
369.699 0.10166999999999993
370.007 0.11499999999999977
370.316 0.11167000000000016
370.627 0.1349999999999998
370.936 0.10499999999999998
371.245 0.10499999999999998
371.553 0.10666999999999982
371.864 0.11332999999999993
372.173 0.09166999999999992
372.482 0.10999999999999988
372.79 0.10332999999999992
373.099 0.11499999999999977
373.41 0.12666999999999984
373.718 0.13832999999999984
374.027 0.1200000000000001
374.336 0.10332999999999992
374.644 0.12166999999999994
374.955 0.11499999999999977
375.264 0.09667000000000003
375.572 0.12666999999999984
375.881 0.09332999999999991
376.19 0.12166999999999994
376.5 0.1299999999999999
376.809 0.12333000000000016
377.117 0.12833000000000006
377.426 0.09833000000000003
377.734 0.12333000000000016
378.043 0.10166999999999993
378.354 0.125
378.662 0.12833000000000006
378.971 0.12166999999999994
379.279 0.125
379.588 0.09667000000000003
379.896 0.12333000000000016
380.207 0.12666999999999984
380.515 0.13332999999999995
380.823 0.11832999999999982
381.132 0.10833000000000004
381.44 0.14500000000000002
381.749 0.11499999999999977
382.057 0.10332999999999992
382.368 0.10833000000000004
382.676 0.14666999999999986
382.984 0.11499999999999977
383.293 0.11499999999999977
383.601 0.13832999999999984
383.909 0.14333000000000018
384.218 0.12666999999999984
384.526 0.13167000000000018
384.836 0.14166999999999996
385.145 0.1349999999999998
385.453 0.14000000000000012
385.761 0.13332999999999995
386.07 0.14666999999999986
386.378 0.12833000000000006
386.686 0.125
386.994 0.1549999999999998
387.302 0.14333000000000018
387.611 0.1633300000000002
387.921 0.14500000000000002
388.229 0.14833000000000007
388.537 0.14000000000000012
388.846 0.14666999999999986
389.154 0.12666999999999984
389.462 0.14333000000000018
389.77 0.13832999999999984
390.078 0.1299999999999999
390.386 0.14333000000000018
390.694 0.14666999999999986
391.002 0.13667000000000007
391.311 0.1499999999999999
391.619 0.14833000000000007
391.927 0.14166999999999996
392.237 0.12833000000000006
392.545 0.14166999999999996
392.853 0.14000000000000012
393.161 0.14000000000000012
393.469 0.14333000000000018
393.777 0.16000000000000014
394.085 0.14000000000000012
394.393 0.17332999999999998
394.701 0.1499999999999999
395.009 0.1549999999999998
395.317 0.16500000000000004
395.625 0.16666999999999987
395.933 0.16666999999999987
396.241 0.13832999999999984
396.549 0.1866699999999999
396.856 0.15832999999999986
397.164 0.17332999999999998
397.472 0.17166999999999977
397.78 0.13667000000000007
398.088 0.15832999999999986
398.396 0.16666999999999987
398.704 0.14500000000000002
399.012 0.17332999999999998
399.319 0.1683300000000001
399.627 0.17832999999999988
399.935 0.16666999999999987
400.243 0.1766700000000001
400.551 0.14500000000000002
400.858 0.15832999999999986
401.166 0.16666999999999987
401.474 0.1683300000000001
401.782 0.1766700000000001
402.089 0.18999999999999995
402.397 0.19667000000000012
402.705 0.1683300000000001
403.012 0.18999999999999995
403.32 0.19499999999999984
403.626 0.18000000000000016
403.933 0.19499999999999984
404.241 0.15832999999999986
404.549 0.2033299999999998
404.856 0.23166999999999982
405.164 0.19667000000000012
405.472 0.2066699999999999
405.779 0.22666999999999993
406.087 0.2066699999999999
406.394 0.22833000000000014
406.702 0.23667000000000016
407.009 0.23667000000000016
407.317 0.23999999999999977
407.625 0.25
407.932 0.23999999999999977
408.238 0.27166999999999986
408.545 0.25333000000000006
408.853 0.2566700000000002
409.16 0.31499999999999995
409.468 0.28500000000000014
409.775 0.30667
410.082 0.3033299999999999
410.39 0.30832999999999977
410.697 0.33999999999999986
411.005 0.32667
411.31 0.38332999999999995
411.618 0.38667000000000007
411.925 0.37333000000000016
412.232 0.39666999999999986
412.54 0.37666999999999984
412.847 0.45999999999999996
413.154 0.43000000000000016
413.462 0.4566699999999999
413.767 0.5
414.074 0.47833000000000014
414.382 0.5099999999999998
414.689 0.56833
414.996 0.6066699999999998
415.304 0.5899999999999999
415.611 0.64167
415.916 0.69333
416.223 0.7250000000000001
416.531 0.7283300000000001
416.838 0.7549999999999999
417.145 0.8199999999999998
417.452 0.84667
417.757 0.9166699999999999
418.065 0.9266700000000001
418.372 0.95167
418.679 0.9766699999999999
418.986 1.0216699999999999
419.291 1.0666699999999998
419.598 1.025
419.906 1.165
420.213 1.105
420.52 1.205
420.825 1.1316700000000002
421.132 1.13333
421.439 1.22167
421.746 1.24167
422.053 1.2399999999999998
422.358 1.1633300000000002
422.665 1.23333
422.972 1.1716699999999998
423.279 1.165
423.586 1.1516700000000002
423.891 1.1783299999999999
424.198 1.1516700000000002
424.505 1.19333
424.812 1.085
425.117 0.9933299999999998
425.424 0.99167
425.731 0.99167
426.038 0.9466700000000001
426.343 0.935
426.65 0.87167
426.956 0.8250000000000002
427.263 0.81
427.568 0.76667
427.875 0.78667
428.182 0.7399999999999998
428.489 0.69333
428.793 0.7050000000000001
429.1 0.6883300000000001
429.407 0.6633300000000002
429.714 0.6316700000000002
430.019 0.6016699999999999
430.325 0.5533299999999999
430.632 0.5633300000000001
430.937 0.5750000000000002
431.244 0.5233300000000001
431.55 0.5350000000000001
431.857 0.49167000000000005
432.162 0.52
432.469 0.4700000000000002
432.775 0.4566699999999999
433.08 0.4266700000000001
433.387 0.4183300000000001
433.693 0.4366699999999999
433.998 0.41000000000000014
434.305 0.4283299999999999
434.611 0.37833000000000006
434.916 0.3849999999999998
435.222 0.40332999999999997
435.529 0.3849999999999998
435.833 0.34667000000000003
436.14 0.31000000000000005
436.447 0.3433299999999999
436.751 0.3116699999999999
437.058 0.3133300000000001
437.364 0.29833
437.669 0.33999999999999986
437.975 0.29666999999999977
438.282 0.28667
438.586 0.28332999999999986
438.893 0.30667
439.199 0.29666999999999977
439.504 0.29499999999999993
439.81 0.2916699999999999
440.117 0.28667
440.421 0.2999999999999998
440.727 0.27166999999999986
441.032 0.27166999999999986
441.338 0.2733300000000001
441.645 0.2650000000000001
441.949 0.2999999999999998
442.255 0.2766700000000002
442.562 0.25333000000000006
442.866 0.25
443.172 0.26332999999999984
443.477 0.25333000000000006
443.783 0.22666999999999993
444.089 0.25832999999999995
444.394 0.24833000000000016
444.7 0.26167000000000007
445.004 0.2450000000000001
445.31 0.23832999999999993
445.617 0.2683300000000002
445.921 0.26332999999999984
446.227 0.2733300000000001
446.531 0.24332999999999982
446.838 0.26666999999999996
447.142 0.29666999999999977
447.448 0.23166999999999982
447.754 0.2549999999999999
448.058 0.27832999999999997
448.365 0.29000000000000004
448.669 0.2650000000000001
448.975 0.2883300000000002
449.279 0.25
449.585 0.28667
449.889 0.25
450.195 0.27166999999999986
450.499 0.2733300000000001
450.805 0.26666999999999996
451.111 0.2933300000000001
451.416 0.2566700000000002
451.722 0.2599999999999998
452.026 0.2549999999999999
452.332 0.26332999999999984
452.636 0.26167000000000007
452.942 0.2250000000000001
453.246 0.2450000000000001
453.552 0.24666999999999994
453.856 0.20000000000000018
454.162 0.22666999999999993
454.465 0.22167000000000003
454.771 0.2183299999999999
455.075 0.22999999999999998
455.381 0.2033299999999998
455.685 0.2033299999999998
455.991 0.21667000000000014
456.295 0.19166999999999978
456.601 0.20000000000000018
456.905 0.20999999999999996
457.211 0.18167
457.514 0.20000000000000018
457.82 0.18999999999999995
458.124 0.1883300000000001
458.43 0.17832999999999988
458.734 0.15332999999999997
459.04 0.1766700000000001
459.343 0.18332999999999977
459.647 0.18500000000000005
459.953 0.16666999999999987
460.257 0.1633300000000002
460.562 0.17832999999999988
460.866 0.19333
461.172 0.18000000000000016
461.476 0.19333
461.781 0.1566700000000001
462.085 0.17832999999999988
462.389 0.1883300000000001
462.694 0.17499999999999982
462.998 0.1883300000000001
463.304 0.18000000000000016
463.607 0.16500000000000004
463.913 0.15832999999999986
464.217 0.1633300000000002
464.52 0.17332999999999998
464.826 0.17166999999999977
465.129 0.2066699999999999
465.435 0.14333000000000018
465.739 0.1883300000000001
466.042 0.18500000000000005
466.348 0.17499999999999982
466.651 0.16666999999999987
466.957 0.18000000000000016
467.26 0.18167
467.564 0.1549999999999998
467.869 0.19667000000000012
468.173 0.18999999999999995
468.478 0.1866699999999999
468.782 0.18000000000000016
469.085 0.1866699999999999
469.391 0.18000000000000016
469.694 0.20000000000000018
469.997 0.19667000000000012
470.303 0.18500000000000005
470.606 0.22167000000000003
470.912 0.20833000000000013
471.215 0.21667000000000014
471.518 0.2233299999999998
471.824 0.2250000000000001
472.127 0.23832999999999993
472.431 0.22999999999999998
472.736 0.25
473.039 0.23667000000000016
473.342 0.2450000000000001
473.648 0.2599999999999998
473.951 0.2799999999999998
474.254 0.2683300000000002
474.56 0.27
474.863 0.2883300000000002
475.166 0.31999999999999984
475.471 0.3283299999999998
475.775 0.42166999999999977
476.078 0.5350000000000001
476.383 0.5833300000000001
476.686 0.5816699999999999
476.99 0.63333
477.295 0.6116700000000002
477.598 0.6466699999999999
477.901 0.6133299999999999
478.204 0.6316700000000002
478.509 0.645
478.812 0.66167
479.116 0.6149999999999998
479.421 0.6600000000000001
479.724 0.6366700000000001
480.027 0.6133299999999999
480.33 0.6299999999999999
480.635 0.6066699999999998
480.938 0.63333
481.241 0.62833
481.544 0.6133299999999999
481.849 0.60833
482.152 0.5550000000000002
482.455 0.585
482.758 0.5499999999999998
483.063 0.48667000000000016
483.366 0.36499999999999977
483.669 0.3450000000000002
483.972 0.2799999999999998
484.277 0.28332999999999986
484.58 0.2799999999999998
484.883 0.2749999999999999
485.186 0.2733300000000001
485.491 0.22999999999999998
485.794 0.22999999999999998
486.097 0.23999999999999977
486.4 0.20999999999999996
486.704 0.21499999999999986
487.007 0.19667000000000012
487.31 0.1983299999999999
487.613 0.2033299999999998
487.916 0.19667000000000012
488.221 0.17332999999999998
488.523 0.2033299999999998
488.826 0.1883300000000001
489.129 0.19166999999999978
489.432 0.19499999999999984
489.737 0.2066699999999999
490.039 0.17166999999999977
490.342 0.1683300000000001
490.645 0.1683300000000001
490.947 0.16166999999999998
491.25 0.13667000000000007
491.555 0.14833000000000007
491.858 0.14666999999999986
492.16 0.1683300000000001
492.463 0.14333000000000018
492.766 0.13667000000000007
493.068 0.14000000000000012
493.4375 0.14175480348788372
493.74199999999996 0.12758980348788396
494.0475 0.1300898034878839
494.35249999999996 0.13425480348788388
494.65700000000004 0.1400898034878839
494.9625 0.12341980348788395
495.115 0.12425480348788387
495.41949999999997 0.12175480348788392
495.72450000000003 0.12258980348788406
496.0285 0.11758980348788373
496.3345 0.10758980348788394
496.639 0.10842480348788386
496.9435 0.13258980348788385
497.249 0.12258980348788384
497.55449999999996 0.12092480348788381
497.85900000000004 0.1142598034878839
498.164 0.1159248034878837
498.469 0.1259198034878839
498.774 0.11342480348788375
499.078 0.10342480348788397
499.38300000000004 0.11675480348788403
499.688 0.12592480348788393
499.993 0.1067548034878838
500.298 0.11508980348788378
500.60249999999996 0.11508980348788378
500.908 0.11591980348788389
501.2125 0.11508980348788378
501.5165 0.10841980348788383
501.8215 0.11925480348788375
502.12649999999996 0.10425980348788388
502.4315 0.10925980348788378
502.7355 0.11175480348788391
503.0395 0.11175480348788391
503.345 0.1342598034878839
503.6495 0.11425480348788375
503.95399999999995 0.09342480348788373
504.259 0.11342480348788375
504.5645 0.10675980348788383
504.869 0.09925480348788396
505.173 0.0909248034878839
505.477 0.10758980348788372
505.78200000000004 0.10758980348788383
506.087 0.09175980348788393
506.39099999999996 0.10091980348788376
506.69550000000004 0.09508980348788376
506.9995 0.09425480348788384
507.304 0.09758980348788393
507.60900000000004 0.09758980348788382
507.9135 0.11342480348788375
508.2175 0.11091980348788388
508.5215 0.10175980348788394
508.82550000000003 0.09925480348788396
509.131 0.10008980348788388
509.4355 0.10258980348788382
509.7395 0.09425480348788384
510.0435 0.07925980348788386
510.34749999999997 0.10425480348788385
510.6515 0.0917548034878839
510.957 0.10842480348788386
511.26099999999997 0.0967548034878839
511.565 0.09258980348788381
511.869 0.08591980348788375
512.173 0.10425980348788388
512.4770000000001 0.1017548034878839
512.782 0.08592480348788378
513.086 0.1200898034878839
513.39 0.1067548034878838
513.694 0.09508980348788398
513.998 0.09841980348788393
514.302 0.09425480348788384
514.606 0.09508980348788376
514.9110000000001 0.11008980348788389
515.2149999999999 0.10758980348788383
515.519 0.10675480348788391
515.8230000000001 0.08675980348788381
515.9735000000001 0.10258980348788382
516.2774999999999 0.09758980348788382
516.5815 0.11175480348788391
516.8855000000001 0.10925480348788397
517.1895 0.09842480348788385
517.4935 0.1009248034878838
517.797 0.10341980348788393
518.101 0.11508980348788378
518.405 0.10925480348788397
518.7090000000001 0.10591980348788388
519.0129999999999 0.1242598034878839
519.3165 0.09758980348788393
519.62 0.11758980348788373
519.924 0.09758980348788382
520.2280000000001 0.12258980348788384
520.533 0.11925980348788401
520.8365 0.13842480348788389
521.1405 0.10675480348788391
521.443 0.13841980348788385
521.7465 0.12425480348788387
522.0505 0.12675480348788382
522.3545 0.12425480348788387
522.6575 0.1359198034878839
522.9615 0.12675980348788385
523.2655 0.12592480348788393
523.5685000000001 0.1017548034878838
523.8725 0.12258980348788384
524.1755 0.13925480348788377
524.479 0.14175480348788372
524.7835 0.12758980348788374
525.087 0.11508980348788378
525.3910000000001 0.1109248034878838
525.694 0.1200898034878839
525.998 0.13092480348788382
526.302 0.12675980348788385
526.604 0.12342480348788398
526.908 0.12258980348788384
527.211 0.11591980348788389
527.515 0.12258980348788406
527.818 0.11592480348788392
528.1220000000001 0.11591980348788389
528.4245000000001 0.1300898034878839
528.7280000000001 0.1342598034878839
529.0315 0.1350898034878838
529.3344999999999 0.12425480348788387
529.6385 0.13508980348788402
529.9415 0.133424803487884
530.2445 0.1250898034878838
530.5475 0.1400898034878839
530.8515 0.1300898034878839
531.1545 0.11842480348788387
531.4580000000001 0.11008980348788389
531.7615 0.1292598034878838
532.0635 0.11925980348788401
532.367 0.13675980348788386
532.6705 0.11675480348788381
532.974 0.12425480348788387
533.277 0.1342598034878839
533.5795 0.12592480348788393
533.883 0.12925480348788398
534.186 0.13925980348788403
534.4894999999999 0.1300898034878839
534.793 0.10842480348788386
535.095 0.13675980348788386
535.3985 0.1250898034878838
535.7015 0.11342480348788375
536.005 0.13675980348788386
536.307 0.13842480348788366
536.6105 0.1300898034878839
536.761 0.12925980348788402
537.0645 0.12841980348788384
537.3665000000001 0.13258980348788385
537.6700000000001 0.1300898034878839
537.973 0.14258980348788386
538.2760000000001 0.1450898034878838
538.577 0.1242598034878839
538.8800000000001 0.120919803487884
539.1835 0.13175980348788374
539.4870000000001 0.13175980348788396
539.789 0.13092480348788382
540.0920000000001 0.12675980348788385
540.395 0.12675480348788382
540.698 0.1484248034878839
541.0 0.11758980348788395
541.3035 0.1300898034878839
541.6065 0.12925480348788398
541.9085 0.15008980348788392
542.2115 0.1409198034878838
542.5145 0.14091980348788402
542.8164999999999 0.13758980348788397
543.1185 0.1442548034878839
543.4214999999999 0.1442548034878839
543.7245 0.17425980348788372
544.0264999999999 0.16758980348788377
544.3295 0.14675480348788406
544.6324999999999 0.16092480348788385
544.9355 0.15008980348788392
545.2375 0.17425980348788395
545.5395000000001 0.1692548034878838
545.8425 0.17258980348788389
546.144 0.1542548034878839
546.447 0.19508980348788385
546.75 0.19841980348788368
547.052 0.18925480348788382
547.355 0.18008980348788395
547.658 0.21258980348788392
547.9585 0.2167548034878839
548.2615 0.24092480348788392
548.5640000000001 0.23842480348788375
548.866 0.25341980348788384
549.169 0.24842480348788376
549.4715 0.27258980348788375
549.7735 0.272589803487884
550.0754999999999 0.2692598034878839
550.377 0.3092548034878839
550.6795 0.31591980348788384
550.9825 0.3225898034878838
551.2845 0.3325898034878838
551.5875 0.34925480348788396
551.8895 0.360924803487884
552.1905 0.350924803487884
552.4935 0.3817548034878837
552.7950000000001 0.3609248034878838
553.0975000000001 0.369254803487884
553.4005 0.39842480348788367
553.701 0.37258980348788384
554.0035 0.38758980348788374
554.306 0.369254803487884
554.608 0.37758980348788396
554.9105 0.37258980348788384
555.212 0.3609198034878838
555.514 0.369254803487884
555.816 0.33425480348788383
556.1179999999999 0.336754803487884
556.421 0.34342480348788373
556.722 0.30592480348788387
557.024 0.300924803487884
557.173 0.29592480348788386
557.4755 0.2934248034878839
557.778 0.2875898034878839
558.0799999999999 0.27425980348788404
558.381 0.24925480348788387
558.6825 0.24842480348788376
558.985 0.23842480348788375
559.2864999999999 0.2209248034878839
559.5889999999999 0.23008980348788377
559.8895 0.22008980348788376
560.192 0.21925980348788388
560.4945 0.21008980348788375
560.796 0.19425980348788374
561.0975000000001 0.18342480348788381
561.3985 0.1784198034878839
561.701 0.18258980348788367
562.0025 0.16841980348788388
562.3035 0.16508980348788382
562.6055 0.15675980348788388
562.9075 0.15258980348788387
563.2085 0.15175980348788398
563.5105 0.14592480348788373
563.8115 0.1300898034878839
564.114 0.15175480348788395
564.415 0.14175980348788397
564.7165 0.14841980348788386
565.018 0.13175980348788396
565.3199999999999 0.13258980348788385
565.6199999999999 0.1292598034878838
565.9225 0.14675480348788383
566.2239999999999 0.13008980348788368
566.526 0.115089803487884
566.826 0.1442548034878839
567.129 0.1259248034878837
567.4300000000001 0.13508980348788402
567.731 0.12925480348788376
568.0319999999999 0.14258980348788386
568.3340000000001 0.11758980348788373
568.6355000000001 0.11841980348788383
568.9365 0.115089803487884
569.238 0.1300898034878839
569.54 0.12841980348788407
569.84 0.10425980348788388
570.142 0.11758980348788373
570.4435 0.11008980348788389
570.7435 0.09758980348788393
571.0455 0.10008980348788366
571.3465000000001 0.10675480348788391
571.6475 0.11175980348788372
571.9485 0.1200898034878839
572.2505 0.1067548034878838
572.5505 0.09842480348788385
572.8525 0.09092480348788379
573.1535 0.12175480348788392
573.4535000000001 0.10258980348788382
573.756 0.11258980348788383
574.057 0.08675480348788378
574.358 0.09675480348788379
574.6585 0.08758980348788381
574.9605 0.09425480348788384
575.2605000000001 0.0967548034878839
575.5615 0.0959248034878839
575.8625 0.0909248034878839
576.1635 0.1017548034878839
576.4649999999999 0.08342480348788373
576.765 0.1017548034878839
577.066 0.08675480348788389
577.3679999999999 0.10425980348788388
577.517 0.09258980348788381
577.817 0.10508980348788377
578.1189999999999 0.10258980348788382
578.4185 0.0967548034878839
578.7204999999999 0.09925480348788396
579.021 0.09008980348788376
579.3209999999999 0.09841980348788382
579.623 0.08591980348788386
579.9235 0.08675480348788378
580.2235000000001 0.10758980348788394
580.5255 0.08425480348788383
580.825 0.08258980348788392
581.1265000000001 0.10592480348788391
581.4275 0.09092480348788401
581.7275 0.09508980348788387
582.0285 0.08508980348788386
582.3285000000001 0.0967548034878839
582.6295 0.09925980348788399
582.9300000000001 0.09675980348788382
583.2305 0.09175480348788378
583.5315 0.06592480348788399
583.832 0.0909248034878839
584.1324999999999 0.08675480348788389
584.4324999999999 0.1009248034878838
584.734 0.07925480348788394
585.0335 0.08842480348788384
585.3340000000001 0.09842480348788396
585.636 0.06842480348788393
585.935 0.07758980348788391
586.2360000000001 0.0775898034878838
586.5360000000001 0.08925980348788398
586.837 0.09758980348788393
587.137 0.08342480348788395
587.4369999999999 0.086754803487884
587.738 0.09425480348788384
588.038 0.08508980348788386
588.338 0.09008980348788398
588.6379999999999 0.09925480348788385
588.9390000000001 0.08675480348788378
589.239 0.09842480348788385
589.539 0.08758980348788392
589.84 0.08508980348788375
590.1405 0.09508980348788387
590.44 0.09008980348788387
590.7405 0.10508980348788399
591.0409999999999 0.10425480348788385
591.3415 0.0967548034878839
591.6405 0.11008980348788389
591.9414999999999 0.09091980348788375
592.2415 0.09508980348788398
592.5419999999999 0.1009248034878838
592.8415 0.09008980348788376
593.1415 0.07592480348788377
593.4425 0.10342480348788397
593.7425000000001 0.09841980348788382
594.0415 0.09258980348788393
594.3420000000001 0.1017548034878838
594.6424999999999 0.1017548034878839
594.9415 0.08342480348788384
595.242 0.08008980348788375
595.5409999999999 0.08675480348788389
595.8415 0.09258980348788381
596.1415 0.1009248034878838
596.442 0.10591980348788377
596.741 0.10591980348788388
597.0415 0.09592480348788368
597.191 0.09008980348788376
597.49 0.09175480348788378
597.7905000000001 0.10342480348788397
598.0895 0.08758980348788381
598.3895 0.11258980348788383
598.689 0.10592480348788391
598.989 0.11258980348788394
599.2895 0.09591980348788387
599.5885000000001 0.09675980348788382
599.8885 0.09842480348788385
600.1875 0.1200898034878839
600.4884999999999 0.10342480348788374
600.7875 0.1109248034878838
601.087 0.0959248034878839
601.3875 0.10508980348788377
601.6865 0.11091980348788377
601.9865 0.11175480348788391
602.2864999999999 0.1142598034878839
602.5865 0.11425480348788386
602.8855000000001 0.1067548034878838
603.1845000000001 0.115089803487884
603.4845 0.13258980348788385
603.7835 0.12592480348788393
604.0835 0.13425480348788388
604.3835 0.11592480348788392
604.6825 0.12258980348788384
604.982 0.14258980348788386
605.281 0.14341980348788397
605.581 0.14342480348788378
605.88 0.14175480348788372
606.179 0.15675480348788384
606.479 0.17508980348788383
606.779 0.15591980348788392
607.078 0.14758980348788375
607.3779999999999 0.1592548034878838
607.6765 0.18008980348788373
607.976 0.19675480348788388
608.275 0.1784248034878837
608.5740000000001 0.2075898034878838
608.874 0.2067548034878839
609.173 0.21258980348788392
609.4715 0.22425480348788374
609.7725 0.22675980348788394
610.071 0.23842480348788397
610.37 0.234259803487884
610.6695 0.22425480348788396
610.9685 0.250089803487884
611.267 0.2534248034878839
611.567 0.2259248034878838
611.8655 0.2609248034878837
612.1645 0.235919803487884
612.4645 0.22258980348788393
612.7625 0.2409198034878839
613.0615 0.22842480348788397
613.3615 0.23925480348788386
613.6595 0.21008980348788397
613.9585 0.22258980348788393
614.2595 0.221754803487884
614.5575 0.1975898034878838
614.8565000000001 0.18341980348788378
615.1565 0.19508980348788385
615.4545 0.20175480348788377
615.7535 0.18175480348788398
616.053 0.173419803487884
616.3515 0.17591980348788394
616.6500000000001 0.17258980348788389
616.7985000000001 0.16675480348788385
617.097 0.16258980348788388
617.3965000000001 0.15175480348788395
617.6955 0.1350898034878838
617.9935 0.15592480348788396
618.2935 0.14425980348788392
618.5915 0.14925980348788404
618.8905 0.1450898034878838
619.1885 0.1317548034878837
619.4884999999999 0.13092480348788382
619.7864999999999 0.13675980348788386
620.085 0.13341980348788396
620.3835 0.11925480348788398
620.683 0.11342480348788397
620.9815 0.10258980348788382
621.28 0.09758980348788393
621.5785 0.1159248034878837
621.8775 0.10091980348788376
622.1759999999999 0.08175980348788392
622.4745 0.120919803487884
622.773 0.1017548034878839
623.072 0.10425980348788388
623.3695 0.12175980348788373
623.668 0.10008980348788388
623.966 0.09175980348788382
624.2655 0.10592480348788369
624.564 0.12092480348788381
624.8620000000001 0.08758980348788381
625.16 0.0917548034878839
625.46 0.11175480348788391
625.758 0.09425980348788376
626.056 0.1017548034878838
626.355 0.09758980348788382
626.653 0.0967548034878839
626.952 0.1200898034878839
627.25 0.0909248034878839
627.5485 0.10175980348788394
627.846 0.07508980348788397
628.144 0.10342480348788397
628.443 0.09258980348788393
628.741 0.10758980348788372
629.0395 0.09508980348788398
629.3375000000001 0.09258980348788381
629.636 0.0825898034878838
629.935 0.09758980348788393
630.233 0.08758980348788392
630.531 0.09425480348788384
630.828 0.0825898034878838
631.1265000000001 0.09675480348788379
631.4245 0.10925480348788374
631.7235000000001 0.10008980348788388
632.0215000000001 0.11175980348788372
632.3195000000001 0.10592480348788391
632.6175000000001 0.08841980348788381
632.9155000000001 0.10008980348788388
633.2125 0.09091980348788398
633.5115000000001 0.08508980348788375
633.8095 0.09508980348788398
634.1075000000001 0.09925980348788377
634.4055000000001 0.085924803487884
634.7035000000001 0.0967548034878839
635.0015000000001 0.08425480348788383
635.2985 0.09508980348788398
635.5975 0.07342480348788383
635.8955000000001 0.09758980348788382
636.0435 0.09008980348788387
636.3415 0.10008980348788399
636.6395 0.09092480348788401
636.9365 0.09758980348788371
637.2345 0.10008980348788388
637.532 0.10091980348788399
637.8299999999999 0.08675480348788389
638.1275 0.08508980348788397
638.4265 0.0909248034878839
638.7235000000001 0.09258980348788381
639.0215000000001 0.0825898034878838
639.319 0.09258980348788381
639.617 0.0784198034878838
639.915 0.07925480348788383
640.2115 0.10841980348788405
640.5095 0.0909248034878839
640.807 0.06508980348788385
641.105 0.07592480348788389
641.404 0.08508980348788386
641.7004999999999 0.08258980348788392
641.998 0.09675480348788379
642.296 0.10008980348788377
642.594 0.08842480348788395
642.89 0.10342480348788397
643.188 0.11008980348788389
643.4860000000001 0.09758980348788382
643.7835 0.09842480348788385
644.0799999999999 0.09092480348788379
644.378 0.115089803487884
644.675 0.09258980348788381
644.973 0.08842480348788384
645.27 0.11008980348788389
645.567 0.09675980348788382
645.866 0.09425480348788373
646.164 0.09758980348788393
646.46 0.09258980348788381
646.758 0.11258980348788383
647.0550000000001 0.10591980348788388
647.3530000000001 0.10758980348788394
647.6495 0.11425480348788375
647.947 0.11842480348788387
648.2445 0.1259248034878837
648.5419999999999 0.12258980348788384
648.8385000000001 0.12425480348788387
648.864 0.13350960697576797
649.163 0.10017960697576767
649.463 0.11350960697576795
649.762 0.12184960697576797
650.062 0.13184960697576775
650.361 0.13684960697576765
650.661 0.15517960697576783
650.96 0.14684960697576788
651.26 0.1401796069757677
651.559 0.1651796069757676
651.858 0.1785096069757679
652.158 0.16850960697576767
652.457 0.17017960697576795
652.757 0.19850960697576792
653.056 0.20017960697576775
653.355 0.22350960697576783
653.655 0.23350960697576761
653.954 0.22017960697576777
654.253 0.21517960697576788
654.553 0.25684960697576775
654.852 0.26684960697576754
655.151 0.2801796069757678
655.451 0.32017960697576786
655.75 0.3235096069757679
656.049 0.3601796069757679
656.349 0.33517960697576754
656.646 0.36350960697576795
656.945 0.37184960697576797
657.244 0.4185096069757676
657.544 0.3968496069757679
657.843 0.44850960697576786
658.142 0.4685096069757679
658.441 0.4068496069757676
658.741 0.4601796069757675
659.04 0.4651796069757678
659.339 0.47850960697576767
659.638 0.4501796069757677
659.937 0.47184960697576755
660.236 0.49017960697576773
660.536 0.4768496069757679
660.835 0.45184960697576754
661.132 0.4601796069757675
661.431 0.41684960697576784
661.73 0.42850960697576784
662.029 0.4268496069757676
662.328 0.41517960697576756
662.627 0.3951796069757676
662.926 0.3418496069757677
663.225 0.35517960697576756
663.524 0.3585096069757676
663.823 0.33184960697576793
664.12 0.3168496069757678
664.419 0.3185096069757676
664.719 0.2835096069757679
665.018 0.25184960697576786
665.316 0.2801796069757678
665.615 0.24850960697576774
665.914 0.22684960697576795
666.213 0.23184960697576784
666.512 0.22850960697576772
666.809 0.22517960697576767
667.108 0.1868496069757679
667.407 0.20017960697576775
667.706 0.21184960697576782
668.005 0.17350960697576756
668.304 0.1835096069757678
668.603 0.1718496069757678
668.9 0.16850960697576767
669.198 0.15184960697576777
669.497 0.1718496069757678
669.796 0.11684960697576763
670.095 0.13184960697576775
670.394 0.12684960697576786
670.691 0.15350960697576754
670.989 0.1401796069757677
671.288 0.11350960697576795
671.587 0.13684960697576765
671.886 0.10684960697576784
672.184 0.11850960697576784
672.481 0.11850960697576784
672.78 0.08684960697576782
673.079 0.12850960697576763
673.377 0.12350960697576774
673.676 0.08184960697576793
673.973 0.0668496069757678
674.271 0.08017960697576765
674.57 0.07350960697576792
674.869 0.10350960697576772
675.167 0.10850960697576761
675.464 0.09184960697576772
675.763 0.11350960697576795
676.061 0.08684960697576782
676.36 0.10850960697576761
676.659 0.10517960697576756
676.955 0.0885096069757676
677.254 0.06850960697576758
677.552 0.07517960697576775
677.851 0.11350960697576795
678.148 0.07850960697576781
678.446 0.0835096069757677
678.745 0.08684960697576782
679.043 0.10517960697576756
679.34 0.08517960697576754
679.638 0.0718496069757677
679.937 0.07017960697576786
680.235 0.08517960697576754
680.532 0.06517960697576797
680.83 0.09350960697576793
681.129 0.0835096069757677
681.427 0.07517960697576775
681.723 0.06850960697576758
682.022 0.07517960697576775
682.32 0.06184960697576791
682.619 0.0668496069757678
682.915 0.07684960697576759
683.214 0.08684960697576782
683.512 0.08017960697576765
683.808 0.07850960697576781
684.107 0.0885096069757676
684.405 0.07684960697576759
684.703 0.07517960697576775
685.0 0.04517960697576795
685.298 0.07517960697576775
685.596 0.09017960697576788
685.893 0.08017960697576765
686.191 0.06850960697576758
686.489 0.08517960697576754
686.788 0.06350960697576769
687.084 0.08184960697576793
687.382 0.06017960697576763
687.68 0.08517960697576754
687.977 0.06184960697576791
688.275 0.05017960697576784
688.573 0.06517960697576797
688.869 0.06517960697576797
689.167 0.0885096069757676
689.466 0.06184960697576791
689.762 0.08017960697576765
690.06 0.0718496069757677
690.358 0.07684960697576759
690.654 0.07684960697576759
690.952 0.04517960697576795
691.25 0.05517960697576774
691.547 0.0885096069757676
691.845 0.08184960697576793
692.143 0.05850960697576779
692.439 0.06350960697576769
692.737 0.07684960697576759
693.033 0.07517960697576775
693.331 0.06517960697576797
693.629 0.0835096069757677
693.925 0.0718496069757677
694.223 0.06184960697576791
694.521 0.07017960697576786
694.817 0.06517960697576797
695.115 0.05184960697576768
695.413 0.0718496069757677
695.709 0.0668496069757678
696.007 0.05850960697576779
696.303 0.04684960697576779
696.601 0.06517960697576797
696.899 0.06850960697576758
697.195 0.06017960697576763
697.493 0.07517960697576775
697.789 0.07350960697576792
698.087 0.06017960697576763
698.385 0.09517960697576777
698.681 0.07517960697576775
698.978 0.07350960697576792
699.274 0.028509606975767543
699.572 0.06017960697576763
699.868 0.07517960697576775
700.166 0.06850960697576758
700.464 0.09684960697576761
700.759 0.10184960697576795
701.057 0.08517960697576754
701.353 0.056849606975767575
701.651 0.07850960697576781
701.947 0.0718496069757677
702.244 0.06017960697576763
702.542 0.06517960697576797
702.838 0.06017960697576763
703.136 0.06184960697576791
703.431 0.07350960697576792
703.729 0.04684960697576779
704.025 0.07017960697576786
704.323 0.10017960697576767
704.618 0.07350960697576792
704.916 0.06350960697576769
705.212 0.06350960697576769
705.509 0.0718496069757677
705.805 0.07517960697576775
706.103 0.08184960697576793
706.4 0.06184960697576791
706.696 0.05850960697576779
706.993 0.07017960697576786
707.289 0.0668496069757678
707.587 0.07350960697576792
707.882 0.06017960697576763
708.18 0.07350960697576792
708.475 0.05517960697576774
708.773 0.0668496069757678
709.068 0.09684960697576761
709.366 0.0535096069757679
709.661 0.0535096069757679
709.959 0.06017960697576763
710.255 0.0718496069757677
710.552 0.0718496069757677
710.847 0.06517960697576797
711.145 0.04850960697576756
711.44 0.06517960697576797
711.736 0.06184960697576791
712.033 0.04850960697576756
712.329 0.06850960697576758
712.626 0.07850960697576781
712.922 0.056849606975767575
713.219 0.05517960697576774
713.514 0.06517960697576797
713.812 0.06184960697576791
714.107 0.06017960697576763
714.405 0.04850960697576756
714.7 0.056849606975767575
714.997 0.07350960697576792
715.293 0.06350960697576769
715.588 0.0535096069757679
715.885 0.07017960697576786
716.181 0.06850960697576758
716.478 0.056849606975767575
716.773 0.04850960697576756
717.07 0.06850960697576758
717.366 0.06350960697576769
717.661 0.04017960697576761
717.958 0.0668496069757678
718.254 0.06850960697576758
718.551 0.0835096069757677
718.846 0.07517960697576775
719.141 0.0668496069757678
719.438 0.06350960697576769
719.734 0.05850960697576779
720.031 0.08017960697576765
720.326 0.06850960697576758
720.621 0.07850960697576781
720.918 0.07017960697576786
721.213 0.05184960697576768
721.511 0.05517960697576774
721.806 0.05850960697576779
722.101 0.04684960697576779
722.398 0.06017960697576763
722.693 0.05850960697576779
722.99 0.0835096069757677
723.285 0.06017960697576763
723.58 0.04850960697576756
723.877 0.04850960697576756
724.172 0.04017960697576761
724.467 0.06017960697576763
724.764 0.038509606975767774
725.06 0.05850960697576779
725.354 0.07517960697576775
725.651 0.038509606975767774
725.946 0.031849606975767664
726.243 0.06017960697576763
726.538 0.06517960697576797
726.833 0.04684960697576779
727.13 0.04350960697576767
727.425 0.04684960697576779
727.72 0.0535096069757679
728.017 0.038509606975767774
728.312 0.056849606975767575
728.607 0.0718496069757677
728.904 0.06017960697576763
729.199 0.06850960697576758
729.494 0.08517960697576754
729.789 0.03350960697576788
730.085 0.06350960697576769
730.38 0.05184960697576768
730.675 0.0668496069757678
730.972 0.05517960697576774
731.267 0.03684960697576756
731.562 0.05017960697576784
731.858 0.056849606975767575
732.153 0.04684960697576779
732.448 0.06517960697576797
732.743 0.05017960697576784
733.039 0.04684960697576779
733.334 0.04517960697576795
733.629 0.03684960697576756
733.926 0.06517960697576797
734.22 0.08184960697576793
734.515 0.0535096069757679
734.81 0.04850960697576756
735.107 0.031849606975767664
735.401 0.031849606975767664
735.696 0.04684960697576779
735.991 0.02684960697576777
736.287 0.03350960697576788
736.582 0.05184960697576768
736.876 0.05517960697576774
737.171 0.056849606975767575
737.468 0.06350960697576769
737.762 0.04684960697576779
738.057 0.05017960697576784
738.352 0.0535096069757679
738.648 0.06184960697576791
738.943 0.06350960697576769
739.237 0.05517960697576774
739.532 0.0668496069757678
739.828 0.06517960697576797
740.123 0.07684960697576759
740.417 0.07350960697576792
740.712 0.03517960697576772
741.006 0.04850960697576756
741.303 0.0535096069757679
741.597 0.056849606975767575
741.892 0.06850960697576758
742.186 0.06017960697576763
742.483 0.05517960697576774
742.777 0.056849606975767575
743.072 0.05184960697576768
743.366 0.04017960697576761
743.66 0.07017960697576786
743.955 0.04350960697576767
744.251 0.04684960697576779
744.546 0.04517960697576795
744.84 0.03684960697576756
745.134 0.05184960697576768
745.429 0.0535096069757679
745.725 0.03684960697576756
746.019 0.056849606975767575
746.314 0.04684960697576779
746.608 0.028509606975767543
746.902 0.05017960697576784
747.197 0.04350960697576767
747.493 0.04350960697576767
747.787 0.04350960697576767
748.082 0.0535096069757679
748.376 0.03517960697576772
748.67 0.03517960697576772
748.964 0.04850960697576756
749.259 0.04517960697576795
749.555 0.056849606975767575
749.849 0.0668496069757678
750.143 0.04017960697576761
750.437 0.0535096069757679
750.732 0.05184960697576768
751.026 0.06017960697576763
751.32 0.056849606975767575
751.614 0.05850960697576779
751.91 0.0535096069757679
752.204 0.04517960697576795
752.498 0.05850960697576779
752.793 0.056849606975767575
753.087 0.05517960697576774
753.381 0.0535096069757679
753.675 0.06017960697576763
753.969 0.05017960697576784
754.263 0.04684960697576779
754.559 0.038509606975767774
754.853 0.04684960697576779
755.147 0.06517960697576797
755.441 0.028509606975767543
755.735 0.04517960697576795
756.029 0.06350960697576769
756.323 0.038509606975767774
756.617 0.04017960697576761
756.911 0.06184960697576791
757.205 0.04517960697576795
757.499 0.05517960697576774
757.793 0.06017960697576763
758.087 0.03350960697576788
758.381 0.05517960697576774
758.677 0.06350960697576769
758.971 0.06350960697576769
759.265 0.028509606975767543
759.559 0.06350960697576769
759.853 0.05850960697576779
760.146 0.04517960697576795
760.44 0.02684960697576777
760.734 0.06350960697576769
761.028 0.0535096069757679
761.322 0.04017960697576761
761.616 0.03517960697576772
761.909 0.06184960697576791
762.203 0.05517960697576774
762.497 0.04684960697576779
762.791 0.031849606975767664
763.085 0.05517960697576774
763.378 0.05017960697576784
763.672 0.056849606975767575
763.966 0.07017960697576786
764.26 0.06517960697576797
764.553 0.0535096069757679
764.847 0.04684960697576779
765.141 0.04850960697576756
765.435 0.041849606975767895
765.728 0.07350960697576792
766.022 0.05517960697576774
766.316 0.05017960697576784
766.609 0.056849606975767575
766.903 0.04350960697576767
767.197 0.0668496069757678
767.49 0.06184960697576791
767.784 0.06517960697576797
768.078 0.056849606975767575
768.371 0.06517960697576797
768.665 0.03517960697576772
768.958 0.0535096069757679
769.252 0.0535096069757679
769.546 0.0535096069757679
769.839 0.04517960697576795
770.133 0.07017960697576786
770.426 0.05517960697576774
770.72 0.038509606975767774
771.013 0.03517960697576772
771.305 0.06017960697576763
771.598 0.056849606975767575
771.892 0.04850960697576756
772.185 0.06017960697576763
772.479 0.04684960697576779
772.772 0.06184960697576791
773.066 0.05017960697576784
773.359 0.06017960697576763
773.653 0.06184960697576791
773.946 0.056849606975767575
774.239 0.06184960697576791
774.533 0.05017960697576784
774.826 0.05850960697576779
775.12 0.04850960697576756
775.411 0.04017960697576761
775.704 0.08684960697576782
775.998 0.05850960697576779
776.291 0.05017960697576784
776.584 0.04850960697576756
776.878 0.04017960697576761
777.171 0.07350960697576792
777.464 0.05017960697576784
777.758 0.05850960697576779
778.049 0.08017960697576765
778.342 0.06350960697576769
778.636 0.05184960697576768
778.929 0.05850960697576779
779.222 0.05850960697576779
779.515 0.06184960697576791
779.809 0.08017960697576765
780.102 0.04850960697576756
780.393 0.0668496069757678
780.686 0.056849606975767575
780.979 0.04517960697576795
781.273 0.0668496069757678
781.566 0.04684960697576779
781.859 0.056849606975767575
782.152 0.05517960697576774
782.443 0.04850960697576756
782.737 0.05517960697576774
783.03 0.0535096069757679
783.323 0.05017960697576784
783.616 0.03684960697576756
783.909 0.05017960697576784
784.2 0.0718496069757677
784.493 0.056849606975767575
784.786 0.07517960697576775
785.079 0.06517960697576797
785.372 0.05184960697576768
785.664 0.028509606975767543
785.957 0.0535096069757679
786.25 0.06850960697576758
786.543 0.06184960697576791
786.836 0.06350960697576769
787.127 0.04850960697576756
787.42 0.07350960697576792
787.713 0.06017960697576763
788.006 0.0535096069757679
788.299 0.06184960697576791
788.59 0.05517960697576774
788.882 0.08184960697576793
789.175 0.06017960697576763
789.468 0.06017960697576763
789.761 0.05517960697576774
790.052 0.06184960697576791
790.345 0.03517960697576772
790.638 0.0535096069757679
790.931 0.06184960697576791
791.222 0.05017960697576784
791.515 0.05184960697576768
791.807 0.05850960697576779
792.1 0.06517960697576797
792.391 0.05184960697576768
792.684 0.07350960697576792
792.977 0.07517960697576775
793.27 0.06850960697576758
793.56 0.07517960697576775
793.853 0.05850960697576779
794.146 0.056849606975767575
794.439 0.056849606975767575
794.729 0.05184960697576768
795.022 0.07684960697576759
795.315 0.0718496069757677
795.606 0.0535096069757679
795.898 0.0668496069757678
796.191 0.05184960697576768
796.484 0.0668496069757678
796.775 0.06850960697576758
797.067 0.08184960697576793
797.36 0.0885096069757676
797.651 0.06517960697576797
797.943 0.03684960697576756
798.236 0.04850960697576756
798.528 0.08017960697576765
798.819 0.04684960697576779
799.112 0.06017960697576763
799.404 0.04850960697576756
799.695 0.06350960697576769
799.987 0.020179606975767594
800.28 0.07017960697576786
800.571 0.06017960697576763
800.863 0.04017960697576761
801.156 0.07684960697576759
801.446 0.07017960697576786
801.739 0.04850960697576756
802.031 0.05017960697576784
802.322 0.06517960697576797
802.614 0.09017960697576788
802.907 0.06017960697576763
803.197 0.0885096069757676
803.49 0.06850960697576758
803.782 0.05184960697576768
804.073 0.08017960697576765
804.365 0.07017960697576786
804.658 0.07017960697576786
804.948 0.07850960697576781
805.241 0.08017960697576765
805.531 0.05017960697576784
805.823 0.0718496069757677
806.116 0.10017960697576767
806.406 0.07517960697576775
806.698 0.07850960697576781
806.991 0.0835096069757677
807.281 0.0718496069757677
807.574 0.07017960697576786
807.864 0.06850960697576758
808.156 0.06850960697576758
808.449 0.06850960697576758
808.739 0.0718496069757677
809.031 0.07017960697576786
809.321 0.07017960697576786
809.614 0.07350960697576792
809.906 0.056849606975767575
810.196 0.06850960697576758
810.489 0.07850960697576781
810.779 0.05850960697576779
811.071 0.07850960697576781
811.363 0.05517960697576774
811.653 0.09017960697576788
811.946 0.056849606975767575
812.236 0.08684960697576782
812.528 0.07350960697576792
812.818 0.0835096069757677
813.11 0.06350960697576769
813.401 0.05850960697576779
813.693 0.06184960697576791
813.985 0.06017960697576763
814.275 0.0718496069757677
814.567 0.08684960697576782
814.857 0.09684960697576761
815.149 0.06517960697576797
815.439 0.06517960697576797
815.731 0.08017960697576765
816.022 0.08184960697576793
816.314 0.0885096069757676
816.604 0.06850960697576758
816.896 0.08017960697576765
817.188 0.08684960697576782
817.478 0.09684960697576761
817.77 0.04517960697576795
818.06 0.07684960697576759
818.352 0.08184960697576793
818.642 0.07684960697576759
818.934 0.05850960697576779
819.224 0.0835096069757677
819.516 0.06184960697576791
819.806 0.06850960697576758
820.098 0.0535096069757679
820.388 0.06517960697576797
820.679 0.04350960697576767
820.969 0.05184960697576768
821.261 0.0835096069757677
821.551 0.06350960697576769
821.843 0.06017960697576763
822.133 0.0668496069757678
822.423 0.08017960697576765
822.715 0.07517960697576775
823.005 0.05017960697576784
823.296 0.0668496069757678
823.586 0.08184960697576793
823.878 0.07850960697576781
824.168 0.0668496069757678
824.46 0.05850960697576779
824.749 0.08017960697576765
825.041 0.07517960697576775
825.331 0.08017960697576765
825.623 0.06850960697576758
825.912 0.06184960697576791
826.202 0.05184960697576768
826.494 0.07850960697576781
826.784 0.08017960697576765
827.075 0.09184960697576772
827.365 0.07850960697576781
827.657 0.06184960697576791
827.947 0.09184960697576772
828.236 0.08017960697576765
828.528 0.07684960697576759
828.818 0.08517960697576754
829.109 0.05017960697576784
829.399 0.09517960697576777
829.69 0.0835096069757677
829.98 0.09350960697576793
830.27 0.0718496069757677
830.561 0.09684960697576761
830.851 0.07517960697576775
831.143 0.08184960697576793
831.432 0.06850960697576758
831.722 0.0718496069757677
832.013 0.09684960697576761
832.303 0.07517960697576775
832.592 0.06850960697576758
832.884 0.0885096069757676
833.173 0.0718496069757677
833.465 0.07850960697576781
833.754 0.07017960697576786
834.044 0.0835096069757677
834.335 0.10017960697576767
834.625 0.0885096069757676
834.914 0.0885096069757676
835.206 0.0718496069757677
835.495 0.08684960697576782
835.785 0.09350960697576793
836.076 0.07517960697576775
836.366 0.08517960697576754
836.657 0.07517960697576775
836.946 0.09684960697576761
837.236 0.08184960697576793
837.527 0.09850960697576783
837.817 0.09017960697576788
838.106 0.07350960697576792
838.397 0.0835096069757677
838.687 0.09517960697576777
838.976 0.08184960697576793
839.265 0.09517960697576777
839.557 0.07350960697576792
839.846 0.09684960697576761
840.135 0.07684960697576759
840.426 0.06517960697576797
840.716 0.09517960697576777
841.005 0.08684960697576782
841.296 0.09017960697576788
841.586 0.08684960697576782
841.875 0.06350960697576769
842.166 0.09850960697576783
842.455 0.07350960697576792
842.744 0.06517960697576797
843.034 0.08184960697576793
843.325 0.0835096069757677
843.614 0.06850960697576758
843.903 0.0885096069757676
844.194 0.10350960697576772
844.484 0.09017960697576788
844.773 0.09350960697576793
845.062 0.09017960697576788
845.353 0.08517960697576754
845.642 0.08017960697576765
845.931 0.06850960697576758
846.22 0.07684960697576759
846.511 0.0835096069757677
846.801 0.10350960697576772
847.09 0.08184960697576793
847.379 0.08184960697576793
847.67 0.08017960697576765
847.959 0.10184960697576795
848.248 0.10017960697576767
848.537 0.0835096069757677
848.828 0.0668496069757678
849.117 0.08517960697576754
849.406 0.0835096069757677
849.695 0.09684960697576761
849.984 0.08684960697576782
850.275 0.04350960697576767
850.564 0.10684960697576784
850.853 0.10517960697576756
851.142 0.08517960697576754
851.431 0.07850960697576781
851.722 0.08517960697576754
852.011 0.0835096069757677
852.299 0.0885096069757676
852.588 0.09517960697576777
852.877 0.0885096069757676
853.168 0.08684960697576782
853.457 0.09350960697576793
853.746 0.08184960697576793
854.035 0.08684960697576782
854.324 0.12017960697576768
854.614 0.10684960697576784
854.903 0.09184960697576772
855.192 0.0885096069757676
855.481 0.08017960697576765
855.77 0.09184960697576772
856.058 0.10517960697576756
856.349 0.11850960697576784
856.638 0.09184960697576772
856.927 0.09184960697576772
857.216 0.0835096069757677
857.504 0.12184960697576797
857.793 0.0885096069757676
858.082 0.10017960697576767
858.372 0.1101796069757679
858.661 0.09017960697576788
858.95 0.11684960697576763
859.239 0.06184960697576791
859.527 0.1101796069757679
859.816 0.0885096069757676
860.105 0.09850960697576783
860.395 0.11684960697576763
860.684 0.09350960697576793
860.973 0.10684960697576784
861.261 0.09850960697576783
861.55 0.0885096069757676
861.838 0.09350960697576793
862.127 0.10350960697576772
862.416 0.07850960697576781
862.704 0.10184960697576795
862.993 0.0535096069757679
863.283 0.10850960697576761
863.572 0.09184960697576772
863.86 0.10684960697576784
864.149 0.09517960697576777
864.437 0.10517960697576756
864.726 0.09517960697576777
865.014 0.11350960697576795
865.303 0.12350960697576774
865.591 0.10017960697576767
865.88 0.09350960697576793
866.168 0.10684960697576784
866.457 0.10850960697576761
866.747 0.11350960697576795
867.036 0.09350960697576793
867.324 0.09850960697576783
867.613 0.12184960697576797
867.901 0.0718496069757677
868.189 0.10517960697576756
868.478 0.10850960697576761
868.766 0.11350960697576795
869.055 0.09684960697576761
869.343 0.13350960697576797
869.631 0.08517960697576754
869.92 0.12184960697576797
870.208 0.12350960697576774
870.496 0.10184960697576795
870.785 0.12684960697576786
871.073 0.13017960697576791
871.361 0.12184960697576797
871.65 0.09517960697576777
871.938 0.09184960697576772
872.226 0.09350960697576793
872.514 0.11184960697576773
872.803 0.11517960697576779
873.091 0.10684960697576784
873.379 0.13184960697576775
873.667 0.1101796069757679
873.956 0.09350960697576793
874.244 0.10850960697576761
874.532 0.09184960697576772
874.82 0.10684960697576784
875.108 0.09684960697576761
875.397 0.13684960697576765
875.685 0.1101796069757679
875.973 0.13684960697576765
876.261 0.11184960697576773
876.549 0.11850960697576784
876.837 0.12184960697576797
877.125 0.10017960697576767
877.414 0.12517960697576758
877.702 0.10184960697576795
877.99 0.11517960697576779
878.278 0.09850960697576783
878.566 0.11517960697576779
878.854 0.11184960697576773
879.142 0.09684960697576761
879.43 0.09017960697576788
879.718 0.12517960697576758
880.004 0.11350960697576795
880.292 0.11517960697576779
880.58 0.12350960697576774
880.868 0.11517960697576779
881.156 0.1101796069757679
881.444 0.12850960697576763
881.732 0.10350960697576772
882.02 0.13017960697576791
882.308 0.13017960697576791
882.596 0.11350960697576795
882.884 0.12850960697576763
883.172 0.12850960697576763
883.458 0.12850960697576763
883.746 0.10350960697576772
884.034 0.14850960697576765
884.322 0.12184960697576797
884.609 0.10517960697576756
884.897 0.14184960697576754
885.185 0.12517960697576758
885.473 0.09017960697576788
885.761 0.12850960697576763
886.049 0.12517960697576758
886.335 0.12350960697576774
886.622 0.1101796069757679
886.91 0.12850960697576763
887.198 0.13184960697576775
887.486 0.13850960697576786
887.774 0.12850960697576763
888.061 0.13684960697576765
888.347 0.14350960697576776
888.635 0.14684960697576788
888.923 0.13850960697576786
889.21 0.11850960697576784
889.498 0.13684960697576765
889.786 0.17350960697576756
890.073 0.14850960697576765
890.359 0.14350960697576776
890.647 0.12017960697576768
890.935 0.13850960697576786
891.222 0.15017960697576793
891.51 0.14350960697576776
891.798 0.1451796069757676
892.083 0.1401796069757677
892.371 0.14850960697576765
892.659 0.1401796069757677
892.946 0.16350960697576777
893.234 0.15517960697576783
893.519 0.1651796069757676
893.807 0.15184960697576777
894.094 0.15017960697576793
894.382 0.1401796069757677
894.67 0.13850960697576786
894.955 0.15184960697576777
895.243 0.15184960697576777
895.53 0.14850960697576765
895.818 0.1451796069757676
896.105 0.12850960697576763
896.391 0.14684960697576788
896.678 0.15350960697576754
896.966 0.15350960697576754
897.253 0.1651796069757676
897.539 0.1651796069757676
897.826 0.12017960697576768
898.114 0.1351796069757678
898.401 0.15850960697576788
898.689 0.16350960697576777
898.974 0.13850960697576786
899.261 0.16017960697576772
899.549 0.15350960697576754
899.836 0.11850960697576784
900.122 0.14684960697576788
900.409 0.14850960697576765
900.696 0.15184960697576777
900.982 0.15517960697576783
901.269 0.16017960697576772
901.556 0.1651796069757676
901.844 0.11684960697576763
902.129 0.16184960697576756
902.417 0.1718496069757678
902.704 0.15517960697576783
902.991 0.16184960697576756
903.276 0.14684960697576788
903.564 0.17017960697576795
903.851 0.1718496069757678
904.136 0.1651796069757676
904.423 0.12350960697576774
904.711 0.14850960697576765
904.998 0.12850960697576763
905.283 0.17350960697576756
905.57 0.16017960697576772
905.858 0.14350960697576776
906.143 0.14184960697576754
906.43 0.1351796069757678
906.717 0.17017960697576795
907.002 0.15350960697576754
907.29 0.1651796069757676
907.577 0.15684960697576766
907.862 0.15350960697576754
908.149 0.13684960697576765
908.436 0.13184960697576775
908.721 0.15184960697576777
909.008 0.1651796069757676
909.295 0.15850960697576788
909.581 0.18850960697576769
909.868 0.1401796069757677
910.155 0.14850960697576765
910.44 0.16184960697576756
910.727 0.19017960697576797
911.014 0.13684960697576765
911.299 0.16350960697576777
911.586 0.15517960697576783
911.871 0.15517960697576783
912.158 0.14184960697576754
912.445 0.13184960697576775
912.73 0.1651796069757676
913.017 0.13684960697576765
913.304 0.16350960697576777
913.589 0.15850960697576788
913.876 0.15184960697576777
914.161 0.17017960697576795
914.448 0.12850960697576763
914.735 0.13850960697576786
915.02 0.15184960697576777
915.307 0.15517960697576783
915.591 0.1718496069757678
915.878 0.17017960697576795
916.165 0.15017960697576793
916.45 0.15684960697576766
916.737 0.1668496069757679
917.022 0.14350960697576776
917.309 0.1868496069757679
917.595 0.14684960697576788
917.88 0.17017960697576795
918.167 0.15850960697576788
918.452 0.12850960697576763
918.739 0.14850960697576765
919.024 0.16184960697576756
919.31 0.15850960697576788
919.597 0.15350960697576754
919.882 0.15850960697576788
920.169 0.14850960697576765
920.453 0.1718496069757678
920.74 0.12850960697576763
921.025 0.1651796069757676
921.312 0.12184960697576797
921.596 0.1651796069757676
921.883 0.13850960697576786
922.168 0.1651796069757676
922.454 0.14684960697576788
922.741 0.17350960697576756
923.026 0.16184960697576756
923.312 0.1918496069757678
923.597 0.19850960697576792
923.884 0.15350960697576754
924.168 0.14350960697576776
924.455 0.16850960697576767
924.74 0.1451796069757676
925.026 0.15350960697576754
925.311 0.16184960697576756
925.597 0.1835096069757678
925.882 0.1668496069757679
926.169 0.1718496069757678
926.453 0.16184960697576756
926.74 0.15850960697576788
927.024 0.1451796069757676
927.311 0.16184960697576756
927.595 0.15184960697576777
927.882 0.1868496069757679
928.166 0.1718496069757678
928.453 0.18850960697576769
928.737 0.1918496069757678
929.022 0.18184960697576757
929.308 0.16350960697576777
929.593 0.15017960697576793
929.879 0.16184960697576756
930.164 0.1668496069757679
930.45 0.14850960697576765
930.734 0.15850960697576788
931.021 0.1668496069757679
931.305 0.13184960697576775
931.592 0.16184960697576756
931.876 0.17684960697576768
932.16 0.15684960697576766
932.447 0.16017960697576772
932.731 0.15350960697576754
933.018 0.17350960697576756
933.302 0.15684960697576766
933.588 0.1401796069757677
933.873 0.15850960697576788
934.157 0.14850960697576765
934.443 0.15350960697576754
934.727 0.13684960697576765
935.014 0.15517960697576783
935.298 0.14850960697576765
935.582 0.13184960697576775
935.869 0.13850960697576786
936.153 0.14350960697576776
936.439 0.16350960697576777
936.723 0.12184960697576797
937.008 0.12850960697576763
937.294 0.13017960697576791
937.578 0.10184960697576795
937.864 0.09850960697576783
938.148 0.12684960697576786
938.433 0.11350960697576795
938.719 0.11850960697576784
939.003 0.13350960697576797
939.287 0.12350960697576774
939.573 0.12184960697576797
939.857 0.12184960697576797
940.143 0.12684960697576786
940.428 0.11850960697576784
940.712 0.11350960697576795
940.998 0.11184960697576773
941.282 0.13684960697576765
941.566 0.10517960697576756
941.852 0.10850960697576761
942.136 0.11850960697576784
942.42 0.09850960697576783
942.706 0.10850960697576761
942.99 0.10684960697576784
943.274 0.09517960697576777
943.56 0.10517960697576756
943.844 0.09517960697576777
944.128 0.11517960697576779
944.414 0.08184960697576793
944.698 0.10517960697576756
944.982 0.10017960697576767
945.268 0.1101796069757679
945.552 0.08517960697576754
945.836 0.09850960697576783
946.12 0.09350960697576793
946.406 0.10017960697576767
946.69 0.0835096069757677
946.974 0.10684960697576784
947.26 0.10517960697576756
947.544 0.09184960697576772
947.828 0.11850960697576784
948.114 0.10184960697576795
948.397 0.08684960697576782
948.681 0.10184960697576795
948.965 0.09350960697576793
949.251 0.0668496069757678
949.535 0.10850960697576761
949.819 0.0718496069757677
950.103 0.0885096069757676
950.388 0.07850960697576781
950.672 0.08684960697576782
950.956 0.09350960697576793
951.24 0.09017960697576788
951.525 0.07350960697576792
951.809 0.0885096069757676
952.093 0.09684960697576761
952.377 0.09850960697576783
952.662 0.11350960697576795
952.946 0.09517960697576777
953.23 0.09017960697576788
953.514 0.0885096069757676
953.799 0.09850960697576783
954.083 0.10517960697576756
954.367 0.08017960697576765
954.65 0.07517960697576775
954.934 0.08517960697576754
955.22 0.09850960697576783
955.503 0.09850960697576783
955.787 0.09517960697576777
956.071 0.11184960697576773
956.356 0.10517960697576756
956.64 0.1101796069757679
956.924 0.09184960697576772
957.207 0.11184960697576773
957.491 0.09517960697576777
957.774 0.10850960697576761
958.06 0.05850960697576779
958.343 0.09517960697576777
958.627 0.11850960697576784
958.911 0.10850960697576761
959.194 0.06350960697576769
959.48 0.0835096069757677
959.763 0.09684960697576761
960.047 0.08017960697576765
960.33 0.10350960697576772
960.614 0.07684960697576759
960.897 0.08517960697576754
961.182 0.07017960697576786
961.466 0.08017960697576765
961.749 0.09517960697576777
962.033 0.09017960697576788
962.316 0.09017960697576788
962.6 0.10350960697576772
962.883 0.08184960697576793
963.169 0.07850960697576781
963.452 0.07684960697576759
963.735 0.08684960697576782
964.019 0.07850960697576781
964.302 0.09850960697576783
964.586 0.08184960697576793
964.869 0.05517960697576774
965.152 0.0668496069757678
965.438 0.09850960697576783
965.721 0.07517960697576775
966.004 0.10017960697576767
966.288 0.08184960697576793
966.571 0.08017960697576765
966.854 0.09517960697576777
967.137 0.08517960697576754
967.421 0.06850960697576758
967.704 0.0718496069757677
967.987 0.07517960697576775
968.272 0.07684960697576759
968.556 0.07684960697576759
968.839 0.07684960697576759
969.122 0.07684960697576759
969.405 0.09184960697576772
969.689 0.03517960697576772
969.972 0.07684960697576759
970.255 0.08517960697576754
970.538 0.09184960697576772
970.821 0.0668496069757678
971.105 0.07017960697576786
971.388 0.0885096069757676
971.671 0.07517960697576775
971.954 0.08684960697576782
972.237 0.08517960697576754
972.52 0.07017960697576786
972.805 0.07350960697576792
973.088 0.0668496069757678
973.371 0.08184960697576793
973.655 0.04517960697576795
973.938 0.07684960697576759
974.221 0.08517960697576754
974.504 0.08184960697576793
974.787 0.08184960697576793
975.07 0.08184960697576793
975.353 0.09517960697576777
975.636 0.08184960697576793
975.919 0.06350960697576769
976.202 0.05850960697576779
976.485 0.0718496069757677
976.768 0.09684960697576761
977.051 0.07017960697576786
977.334 0.0718496069757677
977.617 0.08517960697576754
977.9 0.08684960697576782
978.183 0.09017960697576788
978.466 0.0718496069757677
978.749 0.08517960697576754
979.031 0.10017960697576767
979.314 0.0718496069757677
979.597 0.07350960697576792
979.88 0.10684960697576784
980.163 0.06517960697576797
980.446 0.07684960697576759
980.729 0.09017960697576788
981.01 0.0668496069757678
981.293 0.10517960697576756
981.575 0.08017960697576765
981.858 0.08017960697576765
982.141 0.10850960697576761
982.424 0.08517960697576754
982.707 0.10684960697576784
982.989 0.0835096069757677
983.272 0.07684960697576759
983.555 0.07017960697576786
983.838 0.09184960697576772
984.12 0.09850960697576783
984.403 0.09017960697576788
984.686 0.08184960697576793
984.969 0.10184960697576795
985.251 0.09350960697576793
985.532 0.10184960697576795
985.815 0.07517960697576775
986.098 0.10184960697576795
986.38 0.06517960697576797
986.663 0.09184960697576772
986.946 0.09684960697576761
987.228 0.09017960697576788
987.511 0.09850960697576783
987.794 0.07684960697576759
988.076 0.08184960697576793
988.357 0.07684960697576759
988.639 0.0885096069757676
988.922 0.10850960697576761
989.205 0.10017960697576767
989.487 0.07517960697576775
989.77 0.09684960697576761
990.052 0.09350960697576793
990.335 0.08517960697576754
990.616 0.07017960697576786
990.898 0.10184960697576795
991.181 0.11184960697576773
991.463 0.07850960697576781
991.746 0.10184960697576795
992.028 0.10517960697576756
992.311 0.11184960697576773
992.591 0.06017960697576763
992.874 0.0835096069757677
993.156 0.08684960697576782
993.439 0.10017960697576767
993.721 0.08684960697576782
994.003 0.10350960697576772
994.284 0.10850960697576761
994.566 0.10850960697576761
994.849 0.06850960697576758
995.131 0.10350960697576772
995.414 0.1101796069757679
995.696 0.10017960697576767
995.976 0.10184960697576795
996.259 0.10350960697576772
996.541 0.0885096069757676
996.823 0.10850960697576761
997.106 0.08684960697576782
997.386 0.10017960697576767
997.669 0.11350960697576795
997.951 0.10850960697576761
998.233 0.11850960697576784
998.516 0.09184960697576772
998.796 0.10350960697576772
999.078 0.12850960697576763
999.36 0.09517960697576777
999.643 0.10017960697576767
999.923 0.1101796069757679
1000.21 0.09684960697576761
1000.49 0.09350960697576793
1000.77 0.13184960697576775
1001.05 0.10184960697576795
1001.33 0.12017960697576768
1001.61 0.10684960697576784
1001.9 0.09184960697576772
1002.18 0.09684960697576761
1002.46 0.10684960697576784
1002.74 0.13684960697576765
1003.02 0.08684960697576782
1003.3 0.1101796069757679
1003.59 0.11350960697576795
1003.87 0.10184960697576795
1004.15 0.11850960697576784
1004.43 0.12350960697576774
1004.71 0.12850960697576763
1004.99 0.10850960697576761
1005.28 0.10850960697576761
1005.56 0.11350960697576795
1005.84 0.11517960697576779
1006.12 0.12684960697576786
1006.4 0.11517960697576779
1006.68 0.13350960697576797
1006.96 0.12684960697576786
1007.24 0.10184960697576795
1007.53 0.12850960697576763
1007.81 0.13684960697576765
1008.09 0.11184960697576773
1008.37 0.12517960697576758
1008.65 0.13017960697576791
1008.93 0.13017960697576791
1009.21 0.12684960697576786
1009.5 0.10017960697576767
1009.78 0.12017960697576768
1010.06 0.12517960697576758
1010.34 0.11517960697576779
1010.62 0.10517960697576756
1010.9 0.13350960697576797
1011.18 0.12184960697576797
1011.47 0.11517960697576779
1011.75 0.11350960697576795
1012.03 0.12017960697576768
1012.31 0.12350960697576774
1012.59 0.11684960697576763
1012.87 0.1101796069757679
1013.15 0.11350960697576795
1013.43 0.11350960697576795
1013.72 0.1351796069757678
1014.0 0.12850960697576763
1014.28 0.10684960697576784
1014.56 0.14350960697576776
1014.84 0.09850960697576783
1015.12 0.10017960697576767
1015.4 0.13184960697576775
1015.68 0.10350960697576772
1015.96 0.10517960697576756
1016.24 0.10184960697576795
1016.53 0.13017960697576791
1016.81 0.11684960697576763
1017.09 0.14350960697576776
1017.37 0.13017960697576791
1017.65 0.14850960697576765
1017.93 0.11350960697576795
1018.21 0.1401796069757677
1018.49 0.13684960697576765
1018.77 0.11684960697576763
1019.05 0.14684960697576788
1019.33 0.10684960697576784
1019.61 0.12350960697576774
1019.9 0.13350960697576797
1020.18 0.12184960697576797
1020.46 0.13350960697576797
1020.74 0.15684960697576766
1021.02 0.1351796069757678
1021.3 0.12350960697576774
1021.58 0.14350960697576776
1021.86 0.12350960697576774
1022.14 0.12517960697576758
1022.42 0.1401796069757677
1022.7 0.12850960697576763
1022.98 0.14684960697576788
1023.26 0.11850960697576784
1023.54 0.13684960697576765
1023.83 0.15184960697576777
1024.11 0.13017960697576791
1024.39 0.12017960697576768
1024.67 0.14184960697576754
1024.95 0.15517960697576783
1025.23 0.13350960697576797
1025.51 0.12684960697576786
1025.79 0.11184960697576773
1026.07 0.1451796069757676
1026.35 0.11850960697576784
1026.63 0.15517960697576783
1026.91 0.11684960697576763
1027.19 0.13684960697576765
1027.47 0.12350960697576774
1027.75 0.09684960697576761
1028.03 0.13017960697576791
1028.31 0.12517960697576758
1028.59 0.13184960697576775
1028.87 0.14350960697576776
1029.15 0.15017960697576793
1029.43 0.14850960697576765
1029.71 0.1351796069757678
1030.0 0.11350960697576795
1030.27 0.1401796069757677
1030.56 0.13184960697576775
1030.84 0.14350960697576776
1031.12 0.13017960697576791
1031.4 0.1351796069757678
1031.68 0.15017960697576793
1031.96 0.16017960697576772
1032.24 0.12350960697576774
1032.52 0.12184960697576797
1032.8 0.12017960697576768
1033.08 0.15184960697576777
1033.36 0.12684960697576786
1033.64 0.12684960697576786
1033.92 0.13017960697576791
1034.2 0.14184960697576754
1034.48 0.14184960697576754
1034.76 0.14850960697576765
1035.04 0.14850960697576765
1035.32 0.15850960697576788
1035.6 0.14850960697576765
1035.88 0.14684960697576788
1036.16 0.17684960697576768
1036.44 0.16184960697576756
1036.72 0.16350960697576777
1037.0 0.14184960697576754
1037.28 0.14684960697576788
1037.56 0.15350960697576754
1037.84 0.13684960697576765
1038.12 0.15017960697576793
1038.4 0.14850960697576765
1038.68 0.1785096069757679
1038.96 0.1401796069757677
1039.24 0.15684960697576766
1039.52 0.1351796069757678
1039.79 0.15184960697576777
1040.08 0.1785096069757679
1040.35 0.15184960697576777
1040.64 0.17017960697576795
1040.91 0.15517960697576783
1041.19 0.17350960697576756
1041.47 0.1868496069757679
1041.75 0.15517960697576783
1042.03 0.16184960697576756
1042.31 0.1668496069757679
1042.59 0.15350960697576754
1042.87 0.1785096069757679
1043.15 0.14850960697576765
1043.43 0.1651796069757676
1043.71 0.15684960697576766
1043.99 0.14350960697576776
1044.27 0.17517960697576784
1044.55 0.18184960697576757
1044.83 0.17017960697576795
1045.11 0.17684960697576768
1045.39 0.17350960697576756
1045.67 0.1785096069757679
1045.95 0.16184960697576756
1046.23 0.1668496069757679
1046.51 0.17350960697576756
1046.79 0.18017960697576774
1047.06 0.19017960697576797
1047.34 0.19350960697576758
1047.62 0.15684960697576766
1047.9 0.1785096069757679
1048.18 0.16850960697576767
1048.46 0.19517960697576786
1048.74 0.15517960697576783
1049.02 0.1918496069757678
1049.3 0.15517960697576783
1049.58 0.18850960697576769
1049.86 0.21184960697576782
1050.14 0.1868496069757679
1050.42 0.1968496069757677
1050.7 0.15184960697576777
1050.97 0.21850960697576793
1051.25 0.22517960697576767
1051.53 0.19017960697576797
1051.81 0.18184960697576757
1052.09 0.2018496069757676
1052.37 0.19850960697576792
1052.65 0.20684960697576793
1052.93 0.17684960697576768
1053.21 0.2018496069757676
1053.49 0.19017960697576797
1053.77 0.20517960697576765
1054.05 0.21517960697576788
1054.32 0.20517960697576765
1054.6 0.1835096069757678
1054.88 0.23017960697576756
1055.16 0.20517960697576765
1055.44 0.1718496069757678
1055.72 0.2035096069757678
1056.0 0.22017960697576777
1056.28 0.23350960697576761
1056.56 0.22350960697576783
1056.84 0.24850960697576774
1057.11 0.2035096069757678
1057.39 0.21850960697576793
1057.67 0.21684960697576772
1057.95 0.22517960697576767
1058.23 0.23184960697576784
1058.51 0.22850960697576772
1058.79 0.24350960697576784
1059.07 0.22517960697576767
1059.34 0.1918496069757678
1059.62 0.2018496069757676
1059.9 0.18184960697576757
1060.18 0.2401796069757678
1060.46 0.2035096069757678
1060.74 0.23684960697576773
1061.02 0.22017960697576777
1061.3 0.25850960697576797
1061.57 0.24350960697576784
1061.85 0.21517960697576788
1062.13 0.2651796069757677
1062.41 0.20517960697576765
1062.69 0.2401796069757678
1062.97 0.23184960697576784
1063.25 0.24850960697576774
1063.53 0.25850960697576797
1063.8 0.2701796069757676
1064.08 0.2551796069757679
1064.36 0.24517960697576768
1064.64 0.23850960697576795
1064.92 0.26684960697576754
1065.2 0.23350960697576761
1065.47 0.24517960697576768
1065.75 0.2401796069757678
1066.03 0.2701796069757676
1066.31 0.23350960697576761
1066.59 0.23850960697576795
1066.87 0.27850960697576754
1067.14 0.22850960697576772
1067.42 0.2401796069757678
1067.7 0.27350960697576765
1067.98 0.2718496069757679
1068.26 0.2651796069757677
1068.54 0.2701796069757676
1068.82 0.25850960697576797
1069.09 0.23850960697576795
1069.37 0.24184960697576763
1069.65 0.24517960697576768
1069.93 0.24184960697576763
1070.21 0.2968496069757678
1070.48 0.26850960697576776
1070.76 0.2801796069757678
1071.04 0.27684960697576777
1071.32 0.23850960697576795
1071.6 0.26850960697576776
1071.87 0.2701796069757676
1072.15 0.24350960697576784
1072.43 0.24684960697576797
1072.71 0.2551796069757679
1072.99 0.2601796069757678
1073.26 0.2401796069757678
1073.54 0.26184960697576765
1073.82 0.2718496069757679
1074.1 0.26684960697576754
1074.38 0.23684960697576773
1074.65 0.2401796069757678
1074.93 0.23684960697576773
1075.21 0.26684960697576754
1075.49 0.2601796069757678
1075.77 0.27850960697576754
1076.05 0.2718496069757679
1076.32 0.25350960697576763
1076.6 0.22684960697576795
1076.88 0.26350960697576786
1077.16 0.27350960697576765
1077.43 0.2885096069757678
1077.71 0.2651796069757677
1077.99 0.19850960697576792
1078.27 0.27850960697576754
1078.55 0.2918496069757679
1078.82 0.24850960697576774
1079.1 0.25350960697576763
1079.38 0.23350960697576761
1079.66 0.2851796069757677
1079.93 0.26350960697576786
1080.21 0.25850960697576797
1080.49 0.28184960697576766
1080.77 0.27350960697576765
1081.05 0.2918496069757679
1081.32 0.3118496069757679
1081.6 0.28684960697576756
1081.88 0.25850960697576797
1082.16 0.27850960697576754
1082.43 0.2968496069757678
1082.71 0.27850960697576754
1082.99 0.2851796069757677
1083.27 0.3035096069757679
1083.54 0.2651796069757677
1083.82 0.2901796069757676
1084.1 0.3035096069757679
1084.38 0.30017960697576784
1084.65 0.27517960697576793
1084.93 0.2801796069757678
1085.21 0.32017960697576786
1085.49 0.27350960697576765
1085.76 0.3218496069757677
1086.04 0.2901796069757676
1086.32 0.31517960697576797
1086.6 0.27684960697576777
1086.87 0.2918496069757679
1087.15 0.3135096069757677
1087.43 0.2651796069757677
1087.71 0.2918496069757679
1087.98 0.29350960697576767
1088.26 0.3185096069757676
1088.54 0.2885096069757678
1088.81 0.33184960697576793
1089.09 0.32517960697576775
1089.37 0.33517960697576754
1089.65 0.3068496069757676
1089.92 0.3068496069757676
1090.2 0.3168496069757678
1090.48 0.32517960697576775
1090.75 0.3185096069757676
1091.03 0.2885096069757678
