# Created: 2019-11-28 14:34:53.156456
# rshift intensity
76.1738 0.05333999999999994
76.4989 0.029999999999999805
76.824 0.06666999999999978
77.1491 0.023339999999999694
77.4721 0.03666999999999998
77.7972 0.02666999999999975
78.1223 0.033339999999999925
78.4474 0.029999999999999805
78.7724 0.02666999999999975
79.0975 0.033339999999999925
79.4204 0.03666999999999998
79.7454 0.05667
80.0704 0.020000000000000018
80.3954 0.040000000000000036
80.7204 0.020000000000000018
81.0454 0.033339999999999925
81.3682 0.040000000000000036
81.6931 0.04999999999999982
82.0181 0.02666999999999975
82.343 0.029999999999999805
82.6679 0.023339999999999694
82.9907 0.033339999999999925
83.3156 0.02666999999999975
83.6405 0.0
83.9654 0.033339999999999925
84.2903 0.023339999999999694
84.613 0.04999999999999982
84.9378 0.02666999999999975
85.2626 0.029999999999999805
85.5875 0.040000000000000036
85.9101 0.04333999999999971
86.2349 0.016669999999999963
86.5597 0.029999999999999805
86.8845 0.04666999999999977
87.2093 0.03666999999999998
87.5319 0.05333999999999994
87.8566 0.033339999999999925
88.1814 0.04333999999999971
88.5061 0.03666999999999998
88.8286 0.05333999999999994
89.1533 0.02666999999999975
89.478 0.029999999999999805
89.8027 0.040000000000000036
90.1252 0.029999999999999805
90.4499 0.03666999999999998
90.7745 0.02666999999999975
91.0992 0.04333999999999971
91.4216 0.04666999999999977
91.7462 0.02666999999999975
92.0708 0.023339999999999694
92.3954 0.04666999999999977
92.7179 0.006669999999999732
93.0424 0.023339999999999694
93.367 0.020000000000000018
93.6915 0.020000000000000018
94.0139 0.033339999999999925
94.3384 0.023339999999999694
94.6629 0.04666999999999977
94.9853 0.04333999999999971
95.3098 0.04333999999999971
95.6342 0.05333999999999994
95.9587 0.04333999999999971
96.281 0.033339999999999925
96.6055 0.04666999999999977
96.9299 0.033339999999999925
97.2522 0.040000000000000036
97.5766 0.016669999999999963
97.901 0.05333999999999994
98.2232 0.020000000000000018
98.5476 0.023339999999999694
98.8719 0.029999999999999805
99.1942 0.03666999999999998
99.5185 0.03666999999999998
99.8428 0.02666999999999975
100.165 0.03666999999999998
100.489 0.03666999999999998
100.814 0.023339999999999694
101.136 0.04333999999999971
101.46 0.033339999999999925
101.784 0.04666999999999977
102.106 0.04333999999999971
102.431 0.033339999999999925
102.755 0.040000000000000036
103.077 0.033339999999999925
103.401 0.05333999999999994
103.725 0.06666999999999978
104.047 0.06000000000000005
104.372 0.06666999999999978
104.696 0.02666999999999975
105.018 0.06999999999999984
105.342 0.033339999999999925
105.666 0.06333999999999973
105.988 0.02666999999999975
106.312 0.05333999999999994
106.634 0.04333999999999971
106.958 0.03666999999999998
107.282 0.033339999999999925
107.604 0.009999999999999787
107.928 0.029999999999999805
108.252 0.033339999999999925
108.574 0.03666999999999998
108.898 0.040000000000000036
109.22 0.04333999999999971
109.544 0.05333999999999994
109.868 0.04333999999999971
110.19 0.04666999999999977
110.514 0.02666999999999975
110.836 0.040000000000000036
111.159 0.040000000000000036
111.483 0.02666999999999975
111.805 0.08000000000000007
112.129 0.033339999999999925
112.451 0.05667
112.775 0.04666999999999977
113.096 0.03666999999999998
113.42 0.05667
113.744 0.04666999999999977
114.066 0.04666999999999977
114.39 0.03666999999999998
114.711 0.05667
115.035 0.04999999999999982
115.357 0.02666999999999975
115.681 0.023339999999999694
116.004 0.02666999999999975
116.326 0.03666999999999998
116.65 0.016669999999999963
116.971 0.04999999999999982
117.295 0.029999999999999805
117.617 0.05667
117.94 0.04666999999999977
118.262 0.033339999999999925
118.586 0.02666999999999975
118.907 0.03666999999999998
119.231 0.033339999999999925
119.554 0.04999999999999982
119.876 0.04333999999999971
120.199 0.03666999999999998
120.521 0.020000000000000018
120.845 0.040000000000000036
121.166 0.03666999999999998
121.49 0.04666999999999977
121.811 0.05333999999999994
122.135 0.06999999999999984
122.456 0.020000000000000018
122.78 0.04999999999999982
123.101 0.029999999999999805
123.424 0.03666999999999998
123.746 0.04999999999999982
124.069 0.016669999999999963
124.391 0.029999999999999805
124.714 0.04666999999999977
125.035 0.029999999999999805
125.359 0.033339999999999925
125.68 0.05667
126.004 0.04666999999999977
126.325 0.03666999999999998
126.648 0.033339999999999925
126.97 0.05333999999999994
127.291 0.06000000000000005
127.614 0.05667
127.935 0.06000000000000005
128.259 0.08000000000000007
128.58 0.06999999999999984
128.903 0.05667
129.224 0.06000000000000005
129.548 0.033339999999999925
129.869 0.06999999999999984
130.192 0.06999999999999984
130.513 0.09667000000000003
130.834 0.06666999999999978
131.158 0.040000000000000036
131.479 0.04333999999999971
131.802 0.04333999999999971
132.123 0.04999999999999982
132.446 0.02666999999999975
132.767 0.04666999999999977
133.09 0.07333999999999996
133.411 0.04999999999999982
133.733 0.040000000000000036
134.056 0.05667
134.377 0.05667
134.7 0.03666999999999998
135.021 0.040000000000000036
135.342 0.04333999999999971
135.665 0.05667
135.986 0.03666999999999998
136.309 0.04666999999999977
136.63 0.03666999999999998
136.951 0.04333999999999971
137.274 0.04999999999999982
137.595 0.04333999999999971
137.918 0.03666999999999998
138.238 0.033339999999999925
138.559 0.040000000000000036
138.882 0.02666999999999975
139.203 0.06000000000000005
139.526 0.0033400000000001207
139.847 0.06999999999999984
140.168 0.04666999999999977
140.491 0.03666999999999998
140.811 0.05667
141.132 0.06333999999999973
141.455 0.06333999999999973
141.776 0.06999999999999984
142.097 0.04666999999999977
142.419 0.06333999999999973
142.74 0.06666999999999978
143.061 0.04333999999999971
143.384 0.04999999999999982
143.704 0.04999999999999982
144.027 0.05667
144.348 0.04333999999999971
144.668 0.06666999999999978
144.991 0.03666999999999998
145.312 0.04666999999999977
145.632 0.07333999999999996
145.955 0.03666999999999998
146.276 0.013339999999999907
146.596 0.03666999999999998
146.917 0.040000000000000036
147.24 0.06666999999999978
147.56 0.033339999999999925
147.881 0.06666999999999978
148.203 0.06333999999999973
148.524 0.03666999999999998
148.844 0.029999999999999805
149.167 0.029999999999999805
149.487 0.04666999999999977
149.808 0.040000000000000036
150.131 0.04999999999999982
150.451 0.02666999999999975
150.771 0.05333999999999994
151.092 0.040000000000000036
151.414 0.029999999999999805
151.735 0.05667
152.055 0.04999999999999982
152.378 0.06333999999999973
152.698 0.04999999999999982
153.018 0.05667
153.339 0.029999999999999805
153.661 0.05667
153.982 0.05667
154.302 0.04666999999999977
154.622 0.06000000000000005
154.945 0.06999999999999984
155.265 0.06999999999999984
155.585 0.023339999999999694
155.905 0.040000000000000036
156.228 0.04999999999999982
156.548 0.04666999999999977
156.868 0.05333999999999994
157.188 0.05667
157.511 0.05667
157.831 0.040000000000000036
158.151 0.04333999999999971
158.471 0.06999999999999984
158.794 0.06999999999999984
159.114 0.029999999999999805
159.434 0.040000000000000036
159.754 0.06000000000000005
160.074 0.033339999999999925
160.396 0.04333999999999971
160.717 0.040000000000000036
161.037 0.06000000000000005
161.357 0.04666999999999977
161.679 0.033339999999999925
161.999 0.06000000000000005
162.319 0.05667
162.639 0.05333999999999994
162.959 0.04666999999999977
163.281 0.04999999999999982
163.601 0.06999999999999984
163.921 0.06666999999999978
164.241 0.0866699999999998
164.561 0.06000000000000005
164.881 0.05333999999999994
165.203 0.06333999999999973
165.523 0.06999999999999984
165.843 0.06333999999999973
166.163 0.06666999999999978
166.483 0.06333999999999973
166.803 0.06666999999999978
167.125 0.05333999999999994
167.445 0.09667000000000003
167.764 0.06999999999999984
168.084 0.07667000000000002
168.404 0.06000000000000005
168.724 0.06000000000000005
169.046 0.040000000000000036
169.366 0.04333999999999971
169.685 0.033339999999999925
170.005 0.040000000000000036
170.325 0.08000000000000007
170.645 0.05667
170.964 0.05667
171.286 0.06666999999999978
171.606 0.06666999999999978
171.926 0.040000000000000036
172.245 0.05667
172.565 0.08333999999999975
172.885 0.06333999999999973
173.204 0.06000000000000005
173.524 0.05667
173.846 0.06333999999999973
174.166 0.033339999999999925
174.485 0.05667
174.805 0.04333999999999971
175.124 0.06666999999999978
175.444 0.023339999999999694
175.764 0.08333999999999975
176.083 0.04999999999999982
176.403 0.05667
176.722 0.04999999999999982
177.044 0.04999999999999982
177.363 0.033339999999999925
177.683 0.0866699999999998
178.002 0.06000000000000005
178.322 0.04999999999999982
178.641 0.04666999999999977
178.961 0.05333999999999994
179.28 0.05333999999999994
179.6 0.040000000000000036
179.919 0.05667
180.239 0.06666999999999978
180.558 0.04999999999999982
180.877 0.04999999999999982
181.197 0.06999999999999984
181.516 0.06666999999999978
181.838 0.04333999999999971
182.157 0.06000000000000005
182.476 0.03666999999999998
182.796 0.07333999999999996
183.115 0.04333999999999971
183.434 0.06000000000000005
183.754 0.08333999999999975
184.073 0.05667
184.392 0.08000000000000007
184.712 0.05667
185.031 0.04333999999999971
185.35 0.04666999999999977
185.669 0.05667
185.989 0.03666999999999998
186.308 0.05667
186.627 0.05333999999999994
186.946 0.05667
187.265 0.06999999999999984
187.585 0.05667
187.904 0.013339999999999907
188.223 0.05667
188.542 0.05667
188.861 0.06999999999999984
189.18 0.06333999999999973
189.499 0.04333999999999971
189.818 0.06999999999999984
190.138 0.04666999999999977
190.457 0.06000000000000005
190.776 0.04999999999999982
191.095 0.04333999999999971
191.414 0.04666999999999977
191.733 0.03666999999999998
192.052 0.06000000000000005
192.371 0.04999999999999982
192.69 0.06000000000000005
193.009 0.06000000000000005
193.328 0.06666999999999978
193.647 0.06666999999999978
193.966 0.06999999999999984
194.285 0.06666999999999978
194.602 0.03666999999999998
194.92 0.06333999999999973
195.239 0.05333999999999994
195.558 0.06000000000000005
195.877 0.033339999999999925
196.196 0.07667000000000002
196.515 0.08000000000000007
196.834 0.06333999999999973
197.153 0.04333999999999971
197.471 0.04999999999999982
197.79 0.05667
198.109 0.04666999999999977
198.428 0.06000000000000005
198.747 0.07333999999999996
199.065 0.05333999999999994
199.382 0.0866699999999998
199.701 0.04999999999999982
200.02 0.08999999999999986
200.338 0.04999999999999982
200.657 0.06000000000000005
200.976 0.05667
201.295 0.06000000000000005
201.613 0.04333999999999971
201.932 0.08333999999999975
202.251 0.06999999999999984
202.567 0.05667
202.886 0.07333999999999996
203.204 0.04999999999999982
203.523 0.06666999999999978
203.842 0.06000000000000005
204.16 0.05667
204.479 0.08000000000000007
204.797 0.06666999999999978
205.114 0.08333999999999975
205.433 0.05333999999999994
205.751 0.06666999999999978
206.07 0.040000000000000036
206.388 0.06000000000000005
206.707 0.06666999999999978
207.025 0.06000000000000005
207.342 0.05667
207.66 0.04666999999999977
207.979 0.06999999999999984
208.297 0.03666999999999998
208.615 0.040000000000000036
208.934 0.06999999999999984
209.25 0.07667000000000002
209.569 0.04999999999999982
209.887 0.06999999999999984
210.205 0.06000000000000005
210.524 0.05667
210.842 0.06000000000000005
211.158 0.06000000000000005
211.477 0.05667
211.795 0.06333999999999973
212.113 0.06333999999999973
212.432 0.06666999999999978
212.75 0.07333999999999996
213.066 0.06666999999999978
213.385 0.04666999999999977
213.703 0.06333999999999973
214.021 0.07333999999999996
214.339 0.05333999999999994
214.656 0.05667
214.974 0.05667
215.292 0.023339999999999694
215.61 0.05667
215.926 0.05667
216.245 0.06999999999999984
216.563 0.03666999999999998
216.881 0.06000000000000005
217.199 0.08333999999999975
217.515 0.06333999999999973
217.833 0.06333999999999973
218.151 0.05667
218.469 0.06666999999999978
218.785 0.033339999999999925
219.104 0.06999999999999984
219.422 0.06999999999999984
219.74 0.06666999999999978
220.056 0.06000000000000005
220.374 0.08999999999999986
220.692 0.06333999999999973
221.01 0.06333999999999973
221.326 0.05667
221.644 0.06666999999999978
221.962 0.04666999999999977
222.28 0.02666999999999975
222.596 0.08999999999999986
222.914 0.08333999999999975
223.232 0.08333999999999975
223.547 0.08000000000000007
223.865 0.06999999999999984
224.183 0.05333999999999994
224.501 0.09667000000000003
224.817 0.06666999999999978
225.135 0.06333999999999973
225.453 0.07333999999999996
225.768 0.07667000000000002
226.086 0.06999999999999984
226.404 0.06000000000000005
226.722 0.06999999999999984
227.038 0.07333999999999996
227.355 0.04999999999999982
227.673 0.05333999999999994
227.989 0.06333999999999973
228.307 0.033339999999999925
228.625 0.06999999999999984
228.94 0.06999999999999984
229.258 0.06333999999999973
229.576 0.09333999999999998
229.891 0.06666999999999978
230.209 0.0866699999999998
230.527 0.06999999999999984
230.842 0.10000000000000009
231.16 0.07333999999999996
231.478 0.05667
231.793 0.10333999999999977
232.111 0.06999999999999984
232.428 0.0866699999999998
232.744 0.08333999999999975
233.062 0.06666999999999978
233.379 0.06999999999999984
233.695 0.08000000000000007
234.012 0.06000000000000005
234.33 0.09667000000000003
234.645 0.06666999999999978
234.963 0.06999999999999984
235.278 0.0866699999999998
235.596 0.09333999999999998
235.913 0.05333999999999994
236.229 0.0866699999999998
236.546 0.10333999999999977
236.864 0.08999999999999986
237.179 0.09333999999999998
237.497 0.10000000000000009
237.812 0.06999999999999984
238.129 0.06666999999999978
238.447 0.09333999999999998
238.762 0.0866699999999998
239.08 0.10000000000000009
239.395 0.08333999999999975
239.712 0.09333999999999998
240.03 0.08333999999999975
240.345 0.0866699999999998
240.662 0.07667000000000002
240.978 0.08999999999999986
241.295 0.0866699999999998
241.61 0.10000000000000009
241.927 0.0866699999999998
242.245 0.10999999999999988
242.56 0.10000000000000009
242.877 0.04666999999999977
243.192 0.10999999999999988
243.51 0.06999999999999984
243.825 0.06666999999999978
244.142 0.05333999999999994
244.459 0.09667000000000003
244.774 0.07667000000000002
245.092 0.08333999999999975
245.407 0.08333999999999975
245.724 0.05333999999999994
246.039 0.09333999999999998
246.356 0.08000000000000007
246.671 0.04999999999999982
246.988 0.07333999999999996
247.303 0.06666999999999978
247.62 0.07333999999999996
247.938 0.06000000000000005
248.253 0.06000000000000005
248.57 0.06333999999999973
248.885 0.08999999999999986
249.202 0.0866699999999998
249.517 0.06333999999999973
249.834 0.0866699999999998
250.149 0.06666999999999978
250.466 0.05333999999999994
250.781 0.06000000000000005
251.098 0.06666999999999978
251.412 0.06333999999999973
251.729 0.04333999999999971
252.044 0.06999999999999984
252.361 0.03666999999999998
252.676 0.07333999999999996
252.993 0.09333999999999998
253.308 0.06666999999999978
253.625 0.09667000000000003
253.94 0.04333999999999971
254.256 0.06666999999999978
254.571 0.06999999999999984
254.888 0.05667
255.203 0.08333999999999975
255.518 0.08999999999999986
255.834 0.09333999999999998
256.149 0.07667000000000002
256.466 0.05333999999999994
256.781 0.08999999999999986
257.097 0.05333999999999994
257.412 0.08333999999999975
257.729 0.06333999999999973
258.044 0.05333999999999994
258.36 0.08000000000000007
258.675 0.06333999999999973
258.99 0.08999999999999986
259.306 0.07333999999999996
259.621 0.06999999999999984
259.938 0.06333999999999973
260.252 0.05333999999999994
260.569 0.06666999999999978
260.883 0.07667000000000002
261.198 0.05667
261.515 0.05333999999999994
261.829 0.06000000000000005
262.146 0.0866699999999998
262.46 0.04999999999999982
262.775 0.0866699999999998
263.091 0.08000000000000007
263.406 0.06000000000000005
263.723 0.07333999999999996
264.037 0.06999999999999984
264.354 0.07667000000000002
264.668 0.0866699999999998
264.982 0.0866699999999998
265.299 0.03666999999999998
265.613 0.08000000000000007
265.928 0.06999999999999984
266.244 0.0866699999999998
266.559 0.06666999999999978
266.875 0.05333999999999994
267.189 0.06666999999999978
267.504 0.04999999999999982
267.82 0.040000000000000036
268.134 0.06000000000000005
268.449 0.0866699999999998
268.765 0.05667
269.079 0.07333999999999996
269.394 0.06000000000000005
269.71 0.08000000000000007
270.024 0.06000000000000005
270.341 0.06999999999999984
270.655 0.05333999999999994
270.969 0.06999999999999984
271.286 0.07333999999999996
271.6 0.06999999999999984
271.914 0.06666999999999978
272.23 0.08000000000000007
272.544 0.04999999999999982
272.859 0.06000000000000005
273.175 0.033339999999999925
273.489 0.06666999999999978
273.803 0.06666999999999978
274.119 0.0866699999999998
274.433 0.04333999999999971
274.747 0.06666999999999978
275.062 0.07667000000000002
275.378 0.07667000000000002
275.692 0.06999999999999984
276.006 0.09333999999999998
276.322 0.07333999999999996
276.636 0.06666999999999978
276.95 0.04666999999999977
277.266 0.0866699999999998
277.58 0.08333999999999975
277.894 0.06999999999999984
278.208 0.08999999999999986
278.524 0.08000000000000007
278.838 0.09333999999999998
279.152 0.06999999999999984
279.468 0.08999999999999986
279.782 0.08000000000000007
280.096 0.09667000000000003
280.41 0.05667
280.726 0.06999999999999984
281.04 0.09667000000000003
281.354 0.07667000000000002
281.668 0.08999999999999986
281.983 0.07333999999999996
282.297 0.06000000000000005
282.611 0.09333999999999998
282.925 0.06333999999999973
283.241 0.06999999999999984
283.555 0.03666999999999998
283.868 0.10000000000000009
284.182 0.08000000000000007
284.498 0.09333999999999998
284.812 0.04666999999999977
285.126 0.06999999999999984
285.439 0.08000000000000007
285.753 0.06666999999999978
286.069 0.06333999999999973
286.383 0.09333999999999998
286.696 0.06999999999999984
287.01 0.06999999999999984
287.326 0.08000000000000007
287.639 0.08999999999999986
287.953 0.09333999999999998
288.267 0.06000000000000005
288.58 0.08000000000000007
288.896 0.06000000000000005
289.21 0.09333999999999998
289.523 0.06333999999999973
289.837 0.05667
290.15 0.08000000000000007
290.466 0.07333999999999996
290.78 0.0866699999999998
291.093 0.05667
291.407 0.06333999999999973
291.72 0.08000000000000007
292.034 0.0866699999999998
292.349 0.09333999999999998
292.663 0.0866699999999998
292.976 0.040000000000000036
293.29 0.08333999999999975
293.603 0.04999999999999982
293.917 0.10000000000000009
294.232 0.08333999999999975
294.546 0.07333999999999996
294.859 0.08000000000000007
295.172 0.07333999999999996
295.486 0.06000000000000005
295.799 0.11334
296.113 0.06000000000000005
296.428 0.09333999999999998
296.741 0.10333999999999977
297.055 0.06666999999999978
297.368 0.06000000000000005
297.681 0.08000000000000007
297.995 0.08999999999999986
298.308 0.06333999999999973
298.621 0.08999999999999986
298.937 0.0866699999999998
299.25 0.10000000000000009
299.563 0.05667
299.876 0.06999999999999984
300.19 0.10000000000000009
300.503 0.10000000000000009
300.816 0.06666999999999978
301.129 0.07333999999999996
301.442 0.06000000000000005
301.756 0.04333999999999971
302.071 0.08999999999999986
302.384 0.07667000000000002
302.697 0.07667000000000002
303.01 0.0866699999999998
303.323 0.06333999999999973
303.637 0.07333999999999996
303.95 0.06666999999999978
304.263 0.12333999999999978
304.576 0.06333999999999973
304.889 0.06999999999999984
305.202 0.08999999999999986
305.515 0.07333999999999996
305.828 0.0866699999999998
306.141 0.07667000000000002
306.456 0.08999999999999986
306.769 0.04333999999999971
307.082 0.07333999999999996
307.395 0.10666999999999982
307.708 0.08000000000000007
308.021 0.06666999999999978
308.334 0.07333999999999996
308.647 0.07333999999999996
308.96 0.06666999999999978
309.273 0.10333999999999977
309.586 0.08999999999999986
309.899 0.04666999999999977
310.212 0.07667000000000002
310.525 0.0866699999999998
310.838 0.020000000000000018
311.15 0.08000000000000007
311.463 0.10000000000000009
311.776 0.08999999999999986
312.089 0.07333999999999996
312.402 0.09667000000000003
312.715 0.10333999999999977
313.027 0.11667000000000005
313.34 0.08000000000000007
313.653 0.08333999999999975
313.966 0.05667
314.278 0.06666999999999978
314.591 0.08000000000000007
314.904 0.06333999999999973
315.217 0.0866699999999998
315.529 0.07333999999999996
315.842 0.08999999999999986
316.155 0.10666999999999982
316.467 0.06333999999999973
316.78 0.10333999999999977
317.093 0.08333999999999975
317.405 0.07333999999999996
317.718 0.10000000000000009
318.031 0.07333999999999996
318.343 0.11667000000000005
318.656 0.08999999999999986
318.969 0.08999999999999986
319.281 0.08000000000000007
319.592 0.08333999999999975
319.904 0.0866699999999998
320.217 0.06000000000000005
320.529 0.09333999999999998
320.842 0.08999999999999986
321.154 0.0866699999999998
321.467 0.08000000000000007
321.779 0.08999999999999986
322.092 0.08999999999999986
322.404 0.06999999999999984
322.717 0.10999999999999988
323.029 0.10000000000000009
323.342 0.08999999999999986
323.654 0.06666999999999978
323.965 0.1200000000000001
324.277 0.04666999999999977
324.589 0.10333999999999977
324.902 0.0866699999999998
325.214 0.08333999999999975
325.527 0.11667000000000005
325.839 0.10333999999999977
326.151 0.0866699999999998
326.464 0.10333999999999977
326.776 0.13334000000000001
327.086 0.09667000000000003
327.399 0.12666999999999984
327.711 0.10000000000000009
328.023 0.11334
328.335 0.13667000000000007
328.648 0.11667000000000005
328.96 0.13334000000000001
329.27 0.1499999999999999
329.582 0.1299999999999999
329.895 0.16333999999999982
330.207 0.13667000000000007
330.519 0.1433399999999998
330.831 0.14666999999999986
331.143 0.1299999999999999
331.454 0.14666999999999986
331.766 0.13334000000000001
332.078 0.1200000000000001
332.39 0.1299999999999999
332.702 0.10333999999999977
333.014 0.12333999999999978
333.326 0.1433399999999998
333.636 0.10333999999999977
333.948 0.10000000000000009
334.261 0.09333999999999998
334.573 0.14000000000000012
334.885 0.12333999999999978
335.195 0.10999999999999988
335.507 0.10999999999999988
335.819 0.0866699999999998
336.131 0.06999999999999984
336.443 0.11334
336.753 0.07667000000000002
337.065 0.09667000000000003
337.377 0.09667000000000003
337.689 0.09667000000000003
338.001 0.10333999999999977
338.31 0.10666999999999982
338.622 0.0866699999999998
338.934 0.10000000000000009
339.246 0.07667000000000002
339.558 0.10000000000000009
339.868 0.1200000000000001
340.18 0.07667000000000002
340.492 0.07667000000000002
340.804 0.0866699999999998
341.113 0.10000000000000009
341.425 0.12666999999999984
341.737 0.10666999999999982
342.049 0.08999999999999986
342.361 0.10000000000000009
342.67 0.09667000000000003
342.982 0.10333999999999977
343.294 0.10000000000000009
343.606 0.10000000000000009
343.915 0.1299999999999999
344.227 0.10666999999999982
344.539 0.10000000000000009
344.849 0.15334000000000003
345.16 0.1566700000000001
345.472 0.10333999999999977
345.784 0.12333999999999978
346.093 0.14666999999999986
346.405 0.10666999999999982
346.717 0.11334
347.028 0.09667000000000003
347.338 0.10666999999999982
347.649 0.1299999999999999
347.961 0.10000000000000009
348.271 0.10333999999999977
348.582 0.1299999999999999
348.894 0.10666999999999982
349.205 0.09667000000000003
349.515 0.11334
349.826 0.10333999999999977
350.138 0.10000000000000009
350.447 0.10666999999999982
350.759 0.10000000000000009
351.07 0.13334000000000001
351.38 0.11334
351.691 0.13667000000000007
352.003 0.09667000000000003
352.312 0.09667000000000003
352.624 0.11334
352.935 0.10000000000000009
353.245 0.0866699999999998
353.556 0.07667000000000002
353.867 0.09667000000000003
354.177 0.10000000000000009
354.488 0.08999999999999986
354.799 0.11667000000000005
355.109 0.1433399999999998
355.42 0.10666999999999982
355.732 0.13667000000000007
356.041 0.10999999999999988
356.352 0.10666999999999982
356.663 0.08000000000000007
356.973 0.11667000000000005
357.284 0.09333999999999998
357.593 0.0866699999999998
357.905 0.08999999999999986
358.216 0.10000000000000009
358.525 0.11667000000000005
358.836 0.10000000000000009
359.147 0.10999999999999988
359.457 0.10000000000000009
359.768 0.09333999999999998
360.077 0.09333999999999998
360.388 0.10000000000000009
360.699 0.10999999999999988
361.008 0.08999999999999986
361.32 0.11334
361.629 0.11334
361.94 0.08000000000000007
362.251 0.11334
362.56 0.10666999999999982
362.871 0.10666999999999982
363.18 0.10000000000000009
363.491 0.09667000000000003
363.8 0.1200000000000001
364.111 0.10666999999999982
364.422 0.10999999999999988
364.731 0.07333999999999996
365.042 0.10000000000000009
365.351 0.12333999999999978
365.662 0.09667000000000003
365.971 0.11667000000000005
366.282 0.0866699999999998
366.593 0.09333999999999998
366.902 0.11667000000000005
367.213 0.10999999999999988
367.522 0.10999999999999988
367.833 0.11334
368.142 0.08999999999999986
368.453 0.1299999999999999
368.762 0.13334000000000001
369.073 0.12333999999999978
369.381 0.0866699999999998
369.692 0.10666999999999982
370.001 0.08333999999999975
370.312 0.10666999999999982
370.623 0.0866699999999998
370.932 0.06999999999999984
371.242 0.08999999999999986
371.551 0.1200000000000001
371.862 0.10000000000000009
372.171 0.11334
372.482 0.09667000000000003
372.79 0.10000000000000009
373.101 0.11334
373.41 0.10999999999999988
373.721 0.07333999999999996
374.029 0.10999999999999988
374.34 0.10666999999999982
374.649 0.14000000000000012
374.959 0.06000000000000005
375.268 0.1200000000000001
375.577 0.10333999999999977
375.887 0.10333999999999977
376.196 0.1299999999999999
376.506 0.1299999999999999
376.815 0.08999999999999986
377.126 0.09333999999999998
377.434 0.13334000000000001
377.745 0.10666999999999982
378.053 0.06000000000000005
378.364 0.13667000000000007
378.672 0.12666999999999984
378.983 0.09667000000000003
379.292 0.09333999999999998
379.6 0.10999999999999988
379.911 0.11334
380.219 0.10333999999999977
380.53 0.10999999999999988
380.838 0.1299999999999999
381.148 0.11667000000000005
381.457 0.09667000000000003
381.767 0.10333999999999977
382.076 0.1200000000000001
382.384 0.10999999999999988
382.695 0.09667000000000003
383.003 0.1299999999999999
383.313 0.1299999999999999
383.622 0.09667000000000003
383.93 0.12333999999999978
384.24 0.13334000000000001
384.549 0.09667000000000003
384.859 0.10333999999999977
385.167 0.09333999999999998
385.476 0.10333999999999977
385.786 0.10666999999999982
386.094 0.12333999999999978
386.405 0.14000000000000012
386.713 0.12666999999999984
387.021 0.13334000000000001
387.331 0.12333999999999978
387.64 0.10999999999999988
387.948 0.11334
388.258 0.12666999999999984
388.566 0.14000000000000012
388.877 0.13334000000000001
389.185 0.10666999999999982
389.493 0.12666999999999984
389.803 0.13667000000000007
390.111 0.1433399999999998
390.419 0.16333999999999982
390.729 0.11667000000000005
391.038 0.1299999999999999
391.346 0.10666999999999982
391.656 0.14666999999999986
391.964 0.11334
392.272 0.10666999999999982
392.582 0.10666999999999982
392.89 0.10666999999999982
393.198 0.11667000000000005
393.508 0.1200000000000001
393.816 0.10666999999999982
394.124 0.13334000000000001
394.434 0.10999999999999988
394.742 0.13667000000000007
395.05 0.1200000000000001
395.36 0.09333999999999998
395.668 0.12333999999999978
395.976 0.12333999999999978
396.286 0.11667000000000005
396.594 0.13667000000000007
396.902 0.11667000000000005
397.21 0.14666999999999986
397.52 0.09333999999999998
397.828 0.12666999999999984
398.135 0.10999999999999988
398.445 0.1200000000000001
398.753 0.11334
399.061 0.10999999999999988
399.369 0.14000000000000012
399.679 0.15334000000000003
399.987 0.15334000000000003
400.294 0.14000000000000012
400.604 0.10333999999999977
400.912 0.12333999999999978
401.22 0.13667000000000007
401.527 0.12666999999999984
401.837 0.13334000000000001
402.145 0.13667000000000007
402.453 0.12333999999999978
402.76 0.12333999999999978
403.07 0.14000000000000012
403.378 0.12666999999999984
403.686 0.1566700000000001
403.993 0.15334000000000003
404.303 0.1599999999999997
404.611 0.13667000000000007
404.918 0.16333999999999982
405.226 0.1200000000000001
405.533 0.14666999999999986
405.843 0.12333999999999978
406.151 0.1599999999999997
406.458 0.1599999999999997
406.766 0.1299999999999999
407.076 0.15334000000000003
407.383 0.13334000000000001
407.691 0.14666999999999986
407.998 0.1599999999999997
408.306 0.13334000000000001
408.615 0.1599999999999997
408.923 0.17999999999999972
409.23 0.17999999999999972
409.538 0.14666999999999986
409.845 0.16333999999999982
410.153 0.19667000000000012
410.462 0.20999999999999996
410.77 0.22666999999999993
411.077 0.17999999999999972
411.384 0.16333999999999982
411.692 0.19999999999999973
412.001 0.23666999999999971
412.309 0.19334000000000007
412.616 0.21999999999999975
412.923 0.23999999999999977
413.231 0.21334000000000009
413.538 0.2533400000000001
413.845 0.2533400000000001
414.155 0.27
414.462 0.27666999999999975
414.769 0.26666999999999996
415.077 0.29000000000000004
415.384 0.31000000000000005
415.691 0.31000000000000005
415.999 0.32667
416.308 0.31999999999999984
416.615 0.30667
416.922 0.3166699999999998
417.23 0.33000000000000007
417.537 0.36667000000000005
417.844 0.39334000000000024
418.151 0.3700000000000001
418.458 0.4733400000000003
418.768 0.4566699999999999
419.075 0.45333999999999985
419.382 0.49666999999999994
419.689 0.54
419.996 0.53667
420.303 0.5033399999999997
420.61 0.5899999999999999
420.918 0.57667
421.225 0.6033400000000002
421.532 0.5666700000000002
421.841 0.5233400000000001
422.148 0.6066700000000003
422.455 0.5933399999999995
422.762 0.65334
423.069 0.61667
423.376 0.6233399999999998
423.683 0.65334
423.99 0.6399999999999997
424.297 0.6233399999999998
424.604 0.5700000000000003
424.911 0.5333399999999999
425.218 0.5666700000000002
425.525 0.5300000000000002
425.832 0.53667
426.139 0.4566699999999999
426.446 0.5133400000000004
426.753 0.5199999999999996
427.061 0.4666699999999997
427.368 0.4833400000000001
427.675 0.4566699999999999
427.982 0.39999999999999947
428.289 0.38333999999999957
428.596 0.39334000000000024
428.903 0.3600000000000003
429.209 0.3466699999999996
429.516 0.33000000000000007
429.823 0.32333999999999996
430.13 0.3533400000000002
430.437 0.33000000000000007
430.743 0.35667000000000026
431.05 0.2999999999999998
431.357 0.2833399999999999
431.664 0.2999999999999998
431.97 0.36667000000000005
432.277 0.27666999999999975
432.584 0.26666999999999996
432.891 0.30333999999999994
433.197 0.26666999999999996
433.504 0.25
433.811 0.22999999999999998
434.117 0.22999999999999998
434.424 0.25
434.731 0.22333999999999987
435.037 0.2333400000000001
435.344 0.2433399999999999
435.65 0.19999999999999973
435.957 0.22999999999999998
436.262 0.2166699999999997
436.568 0.2433399999999999
436.875 0.2166699999999997
437.181 0.21999999999999975
437.488 0.18333999999999984
437.794 0.20999999999999996
438.101 0.22333999999999987
438.407 0.2066699999999999
438.714 0.2066699999999999
439.02 0.19334000000000007
439.327 0.17334000000000005
439.633 0.20333999999999985
439.94 0.19999999999999973
440.246 0.1599999999999997
440.553 0.19999999999999973
440.859 0.1866699999999999
441.163 0.1566700000000001
441.47 0.1433399999999998
441.776 0.2066699999999999
442.083 0.19334000000000007
442.389 0.18333999999999984
442.695 0.15334000000000003
443.002 0.18333999999999984
443.308 0.1599999999999997
443.614 0.1766700000000001
443.921 0.19334000000000007
444.225 0.1499999999999999
444.531 0.13667000000000007
444.838 0.20333999999999985
445.144 0.17999999999999972
445.45 0.18333999999999984
445.757 0.16999999999999993
446.063 0.1866699999999999
446.369 0.19667000000000012
446.675 0.16666999999999987
446.979 0.17334000000000005
447.286 0.1599999999999997
447.592 0.15334000000000003
447.898 0.16999999999999993
448.204 0.17334000000000005
448.51 0.1499999999999999
448.817 0.1566700000000001
449.121 0.19334000000000007
449.427 0.17334000000000005
449.733 0.19999999999999973
450.039 0.2066699999999999
450.345 0.1766700000000001
450.651 0.1866699999999999
450.955 0.1599999999999997
451.261 0.1766700000000001
451.568 0.19334000000000007
451.874 0.19999999999999973
452.18 0.1566700000000001
452.486 0.1566700000000001
452.79 0.15334000000000003
453.096 0.1499999999999999
453.402 0.17334000000000005
453.708 0.1866699999999999
454.014 0.1766700000000001
454.318 0.1499999999999999
454.624 0.16666999999999987
454.93 0.10999999999999988
455.236 0.16999999999999993
455.541 0.1499999999999999
455.845 0.1566700000000001
456.151 0.12333999999999978
456.457 0.12666999999999984
456.763 0.16666999999999987
457.067 0.17999999999999972
457.373 0.12666999999999984
457.679 0.1433399999999998
457.985 0.16666999999999987
458.29 0.1599999999999997
458.594 0.12666999999999984
458.9 0.1566700000000001
459.206 0.1599999999999997
459.512 0.16333999999999982
459.815 0.1200000000000001
460.121 0.14666999999999986
460.427 0.1599999999999997
460.733 0.16333999999999982
461.036 0.1566700000000001
461.342 0.12666999999999984
461.648 0.1566700000000001
461.954 0.11334
462.257 0.14666999999999986
462.563 0.1766700000000001
462.869 0.14000000000000012
463.172 0.1499999999999999
463.478 0.1433399999999998
463.784 0.1499999999999999
464.089 0.1299999999999999
464.393 0.12333999999999978
464.699 0.15334000000000003
465.004 0.16666999999999987
465.308 0.1299999999999999
465.613 0.13334000000000001
465.919 0.13667000000000007
466.225 0.1499999999999999
466.528 0.15334000000000003
466.834 0.1566700000000001
467.139 0.16333999999999982
467.443 0.13667000000000007
467.748 0.13334000000000001
468.054 0.14000000000000012
468.357 0.16333999999999982
468.663 0.1499999999999999
468.968 0.1499999999999999
469.272 0.1299999999999999
469.577 0.1566700000000001
469.883 0.1566700000000001
470.186 0.12666999999999984
470.492 0.14000000000000012
470.797 0.11667000000000005
471.1 0.1599999999999997
471.406 0.1499999999999999
471.711 0.16666999999999987
472.014 0.16666999999999987
472.32 0.17334000000000005
472.625 0.16666999999999987
472.929 0.1766700000000001
473.234 0.17334000000000005
473.539 0.17999999999999972
473.843 0.18333999999999984
474.148 0.17334000000000005
474.451 0.19667000000000012
474.756 0.17334000000000005
475.062 0.19334000000000007
475.365 0.19334000000000007
475.67 0.16333999999999982
475.973 0.22333999999999987
476.279 0.21999999999999975
476.584 0.19667000000000012
476.887 0.22666999999999993
477.192 0.2433399999999999
477.498 0.2433399999999999
477.801 0.3366699999999998
478.106 0.31999999999999984
478.409 0.41000000000000014
478.714 0.4766699999999995
479.017 0.47999999999999954
479.322 0.4166699999999999
479.628 0.46999999999999975
479.931 0.3966700000000003
480.236 0.43667000000000034
480.539 0.4299999999999997
480.844 0.42666999999999966
481.147 0.4299999999999997
481.452 0.33333999999999975
481.757 0.28667
482.06 0.2633399999999999
482.365 0.24666999999999994
482.668 0.25666999999999973
482.973 0.18999999999999995
483.276 0.18999999999999995
483.581 0.20333999999999985
483.884 0.19999999999999973
484.189 0.16333999999999982
484.494 0.18999999999999995
484.797 0.17334000000000005
485.102 0.16999999999999993
485.405 0.1866699999999999
485.71 0.20333999999999985
486.013 0.1599999999999997
486.318 0.16333999999999982
486.621 0.1433399999999998
486.925 0.1866699999999999
487.228 0.18999999999999995
487.533 0.16333999999999982
487.836 0.14666999999999986
488.141 0.15334000000000003
488.444 0.1499999999999999
488.748 0.14000000000000012
489.051 0.1566700000000001
489.356 0.1433399999999998
489.659 0.1599999999999997
489.964 0.1433399999999998
490.266 0.16999999999999993
490.571 0.10999999999999988
490.874 0.16333999999999982
491.179 0.12666999999999984
491.481 0.11334
491.786 0.13667000000000007
492.089 0.1299999999999999
492.393 0.13667000000000007
492.696 0.1200000000000001
493.001 0.14000000000000012
493.303 0.13667000000000007
493.606 0.11667000000000005
493.911 0.1200000000000001
494.213 0.10999999999999988
494.518 0.10666999999999982
494.821 0.14666999999999986
495.125 0.11667000000000005
495.428 0.10999999999999988
495.732 0.1433399999999998
496.035 0.1566700000000001
496.337 0.11334
496.642 0.1299999999999999
496.945 0.11667000000000005
497.249 0.10333999999999977
497.552 0.10999999999999988
497.856 0.13667000000000007
498.159 0.10999999999999988
498.461 0.14666999999999986
498.766 0.12666999999999984
499.068 0.07333999999999996
499.372 0.10333999999999977
499.675 0.10000000000000009
499.977 0.1200000000000001
500.282 0.1299999999999999
500.584 0.10333999999999977
500.889 0.08999999999999986
501.191 0.1200000000000001
501.493 0.10666999999999982
501.798 0.12666999999999984
502.1 0.11334
502.402 0.13667000000000007
502.707 0.1299999999999999
503.009 0.10999999999999988
503.314 0.11334
503.616 0.07333999999999996
503.918 0.12333999999999978
504.222 0.10666999999999982
504.525 0.14000000000000012
504.827 0.1200000000000001
505.131 0.08999999999999986
505.433 0.1433399999999998
505.736 0.13334000000000001
506.04 0.14000000000000012
506.342 0.11334
506.646 0.10999999999999988
506.949 0.1299999999999999
507.251 0.09667000000000003
507.555 0.13334000000000001
507.857 0.10666999999999982
508.159 0.10666999999999982
508.461 0.12333999999999978
508.766 0.12666999999999984
509.068 0.1200000000000001
509.37 0.12666999999999984
509.674 0.1200000000000001
509.976 0.11334
510.278 0.10333999999999977
510.582 0.11667000000000005
510.884 0.11667000000000005
511.186 0.1200000000000001
511.49 0.11334
511.792 0.10000000000000009
512.094 0.1299999999999999
512.396 0.12666999999999984
512.701 0.10666999999999982
513.003 0.10666999999999982
513.305 0.10999999999999988
513.609 0.1299999999999999
513.91 0.09667000000000003
514.212 0.10666999999999982
514.514 0.13334000000000001
514.818 0.09333999999999998
515.12 0.11667000000000005
515.422 0.13667000000000007
515.724 0.12666999999999984
516.028 0.09333999999999998
516.33 0.0866699999999998
516.632 0.09333999999999998
516.934 0.10999999999999988
517.237 0.1433399999999998
517.539 0.11334
517.841 0.1200000000000001
518.143 0.12666999999999984
518.447 0.13667000000000007
518.749 0.1433399999999998
519.05 0.10000000000000009
519.352 0.11334
519.656 0.11667000000000005
519.958 0.13334000000000001
520.26 0.10666999999999982
520.561 0.13667000000000007
520.863 0.1299999999999999
521.167 0.10000000000000009
521.468 0.11667000000000005
521.77 0.14666999999999986
522.072 0.09333999999999998
522.376 0.12333999999999978
522.677 0.13667000000000007
522.979 0.14000000000000012
523.281 0.1299999999999999
523.582 0.12333999999999978
523.884 0.12666999999999984
524.187 0.13667000000000007
524.489 0.1299999999999999
524.791 0.1299999999999999
525.092 0.12333999999999978
525.394 0.10000000000000009
525.697 0.10999999999999988
525.999 0.1200000000000001
526.301 0.11334
526.602 0.11667000000000005
526.904 0.12666999999999984
527.205 0.1566700000000001
527.507 0.1299999999999999
527.81 0.12666999999999984
528.112 0.10333999999999977
528.413 0.1566700000000001
528.715 0.12333999999999978
529.016 0.08999999999999986
529.318 0.12666999999999984
529.619 0.11334
529.922 0.08000000000000007
530.224 0.12333999999999978
530.525 0.12666999999999984
530.827 0.10666999999999982
531.128 0.10666999999999982
531.429 0.0866699999999998
531.731 0.09667000000000003
532.032 0.1200000000000001
532.336 0.10000000000000009
532.637 0.12666999999999984
532.938 0.10333999999999977
533.24 0.12333999999999978
533.541 0.1200000000000001
533.842 0.11334
534.143 0.12333999999999978
534.445 0.13334000000000001
534.746 0.09667000000000003
535.047 0.1200000000000001
535.351 0.10666999999999982
535.652 0.1200000000000001
535.953 0.12666999999999984
536.254 0.13334000000000001
536.555 0.12333999999999978
536.857 0.10999999999999988
537.158 0.12333999999999978
537.459 0.10999999999999988
537.76 0.09667000000000003
538.061 0.14666999999999986
538.362 0.12333999999999978
538.664 0.10999999999999988
538.965 0.11334
539.266 0.11667000000000005
539.567 0.13667000000000007
539.868 0.13667000000000007
540.169 0.09667000000000003
540.472 0.12666999999999984
540.773 0.1499999999999999
541.074 0.12333999999999978
541.375 0.10000000000000009
541.677 0.12666999999999984
541.978 0.1499999999999999
542.279 0.11334
542.58 0.08999999999999986
542.881 0.09333999999999998
543.182 0.13667000000000007
543.483 0.10999999999999988
543.784 0.14666999999999986
544.085 0.11667000000000005
544.385 0.1499999999999999
544.686 0.12333999999999978
544.987 0.13667000000000007
545.288 0.11334
545.589 0.1299999999999999
545.89 0.1499999999999999
546.191 0.14000000000000012
546.492 0.12333999999999978
546.793 0.15334000000000003
547.094 0.14666999999999986
547.394 0.1566700000000001
547.695 0.14000000000000012
547.996 0.1433399999999998
548.297 0.16333999999999982
548.596 0.17334000000000005
548.897 0.15334000000000003
549.197 0.16999999999999993
549.498 0.13334000000000001
549.799 0.16999999999999993
550.1 0.17334000000000005
550.4 0.16666999999999987
550.701 0.18999999999999995
551.002 0.1866699999999999
551.303 0.19667000000000012
551.603 0.1766700000000001
551.904 0.2066699999999999
552.205 0.2166699999999997
552.505 0.23999999999999977
552.806 0.20999999999999996
553.107 0.22666999999999993
553.407 0.21999999999999975
553.706 0.23666999999999971
554.007 0.25
554.307 0.24666999999999994
554.608 0.19667000000000012
554.909 0.19667000000000012
555.209 0.25
555.51 0.21999999999999975
555.81 0.1866699999999999
556.111 0.22333999999999987
556.411 0.21334000000000009
556.71 0.22333999999999987
557.01 0.19334000000000007
557.311 0.20999999999999996
557.612 0.16666999999999987
557.912 0.17334000000000005
558.213 0.15334000000000003
558.513 0.16666999999999987
558.813 0.16999999999999993
559.112 0.15334000000000003
559.412 0.1200000000000001
559.713 0.15334000000000003
560.013 0.14666999999999986
560.314 0.16666999999999987
560.614 0.1566700000000001
560.914 0.15334000000000003
561.213 0.1599999999999997
561.513 0.13334000000000001
561.814 0.10333999999999977
562.114 0.1499999999999999
562.414 0.10333999999999977
562.715 0.14000000000000012
563.015 0.09667000000000003
563.313 0.13334000000000001
563.614 0.14000000000000012
563.914 0.1599999999999997
564.214 0.12666999999999984
564.515 0.13667000000000007
564.813 0.14000000000000012
565.113 0.16333999999999982
565.413 0.14666999999999986
565.714 0.1200000000000001
566.014 0.13667000000000007
566.312 0.10999999999999988
566.612 0.12333999999999978
566.912 0.12666999999999984
567.213 0.10333999999999977
567.513 0.14000000000000012
567.811 0.1200000000000001
568.111 0.13334000000000001
568.411 0.12333999999999978
568.712 0.1499999999999999
569.012 0.12666999999999984
569.31 0.10333999999999977
569.61 0.15334000000000003
569.91 0.14666999999999986
570.21 0.12666999999999984
570.508 0.10333999999999977
570.808 0.12333999999999978
571.108 0.11667000000000005
571.408 0.09333999999999998
571.706 0.1200000000000001
572.006 0.11667000000000005
572.306 0.15334000000000003
572.607 0.10999999999999988
572.904 0.09333999999999998
573.204 0.12666999999999984
573.505 0.12666999999999984
573.805 0.13334000000000001
574.102 0.11334
574.402 0.10666999999999982
574.702 0.1566700000000001
575.002 0.10333999999999977
575.3 0.08000000000000007
575.6 0.13334000000000001
575.9 0.12666999999999984
576.198 0.10999999999999988
576.498 0.10999999999999988
576.798 0.1200000000000001
577.098 0.11667000000000005
577.395 0.12333999999999978
577.695 0.09667000000000003
577.995 0.10333999999999977
578.293 0.12333999999999978
578.593 0.12666999999999984
578.893 0.14000000000000012
579.19 0.12333999999999978
579.49 0.09667000000000003
579.79 0.13334000000000001
580.088 0.10999999999999988
580.387 0.1200000000000001
580.687 0.1200000000000001
580.985 0.1200000000000001
581.285 0.10666999999999982
581.584 0.10000000000000009
581.882 0.09333999999999998
582.182 0.1200000000000001
582.482 0.10000000000000009
582.779 0.11334
583.079 0.12666999999999984
583.378 0.11334
583.676 0.11667000000000005
583.976 0.12666999999999984
584.275 0.10333999999999977
584.573 0.1433399999999998
584.873 0.10666999999999982
585.17 0.10999999999999988
585.47 0.12333999999999978
585.769 0.11667000000000005
586.067 0.1566700000000001
586.367 0.13334000000000001
586.666 0.10333999999999977
586.964 0.13667000000000007
587.263 0.11667000000000005
587.561 0.11334
587.86 0.10666999999999982
588.16 0.10000000000000009
588.457 0.13334000000000001
588.757 0.10000000000000009
589.054 0.12666999999999984
589.354 0.12333999999999978
589.653 0.1200000000000001
589.951 0.1299999999999999
590.25 0.12333999999999978
590.547 0.11667000000000005
590.847 0.11334
591.144 0.10999999999999988
591.444 0.1200000000000001
591.743 0.10333999999999977
592.04 0.11667000000000005
592.34 0.10333999999999977
592.637 0.12666999999999984
592.936 0.13667000000000007
593.234 0.10666999999999982
593.533 0.14000000000000012
593.832 0.09667000000000003
594.13 0.13667000000000007
594.429 0.12333999999999978
594.726 0.08000000000000007
595.026 0.11667000000000005
595.323 0.1433399999999998
595.622 0.08999999999999986
595.919 0.12666999999999984
596.219 0.1299999999999999
596.516 0.09667000000000003
596.815 0.11667000000000005
597.112 0.10333999999999977
597.411 0.13334000000000001
597.709 0.1299999999999999
598.008 0.10999999999999988
598.305 0.12333999999999978
598.604 0.11334
598.901 0.12333999999999978
599.2 0.13334000000000001
599.497 0.12666999999999984
599.797 0.10000000000000009
600.094 0.13667000000000007
600.393 0.10999999999999988
600.69 0.11667000000000005
600.989 0.10000000000000009
601.286 0.10666999999999982
601.585 0.1299999999999999
601.882 0.09667000000000003
602.181 0.13667000000000007
602.478 0.12666999999999984
602.777 0.15334000000000003
603.074 0.13667000000000007
603.373 0.12333999999999978
603.67 0.12333999999999978
603.969 0.13667000000000007
604.266 0.12333999999999978
604.563 0.14666999999999986
604.862 0.13334000000000001
605.159 0.1433399999999998
605.458 0.1566700000000001
605.755 0.12666999999999984
606.054 0.14000000000000012
606.351 0.11334
606.65 0.1433399999999998
606.946 0.12333999999999978
607.243 0.1499999999999999
607.542 0.12333999999999978
607.839 0.15334000000000003
608.138 0.12666999999999984
608.435 0.1499999999999999
608.732 0.1499999999999999
609.03 0.16666999999999987
609.327 0.1599999999999997
609.626 0.16999999999999993
609.923 0.1599999999999997
610.22 0.18333999999999984
610.518 0.13667000000000007
610.815 0.16333999999999982
611.114 0.1766700000000001
611.411 0.22333999999999987
611.707 0.1766700000000001
612.006 0.1766700000000001
612.303 0.19999999999999973
612.601 0.19334000000000007
612.898 0.20999999999999996
613.195 0.19667000000000012
613.493 0.19667000000000012
613.79 0.19334000000000007
614.087 0.1299999999999999
614.385 0.17999999999999972
614.682 0.1766700000000001
614.979 0.12333999999999978
615.277 0.15334000000000003
615.574 0.1766700000000001
615.87 0.14000000000000012
616.169 0.1499999999999999
616.466 0.1433399999999998
616.764 0.11334
617.061 0.16333999999999982
617.357 0.1433399999999998
617.656 0.16999999999999993
617.952 0.13667000000000007
618.249 0.12333999999999978
618.545 0.16333999999999982
618.844 0.10666999999999982
619.14 0.1499999999999999
619.437 0.11334
619.735 0.14000000000000012
620.032 0.1299999999999999
620.328 0.10000000000000009
620.626 0.14000000000000012
620.923 0.10000000000000009
621.219 0.12666999999999984
621.518 0.10999999999999988
621.814 0.10666999999999982
622.11 0.10999999999999988
622.407 0.13334000000000001
622.705 0.1499999999999999
623.002 0.11334
623.298 0.14666999999999986
623.594 0.10333999999999977
623.893 0.1200000000000001
624.189 0.1299999999999999
624.485 0.10666999999999982
624.784 0.13667000000000007
625.08 0.12666999999999984
625.376 0.10333999999999977
625.672 0.11667000000000005
625.971 0.09667000000000003
626.267 0.1299999999999999
626.563 0.12666999999999984
626.859 0.06999999999999984
627.158 0.11667000000000005
627.454 0.10666999999999982
627.75 0.1200000000000001
628.046 0.1200000000000001
628.342 0.10666999999999982
628.641 0.1299999999999999
628.937 0.11334
629.233 0.10999999999999988
629.529 0.14000000000000012
629.827 0.11334
630.123 0.08000000000000007
630.419 0.1433399999999998
630.715 0.13667000000000007
631.011 0.11667000000000005
631.31 0.1499999999999999
631.606 0.11334
631.902 0.08000000000000007
632.198 0.1499999999999999
632.494 0.10000000000000009
632.792 0.13667000000000007
633.088 0.12333999999999978
633.384 0.0866699999999998
633.68 0.1200000000000001
633.976 0.11667000000000005
634.272 0.12333999999999978
634.57 0.11667000000000005
634.866 0.13667000000000007
635.162 0.0866699999999998
635.458 0.11667000000000005
635.754 0.13667000000000007
636.05 0.12333999999999978
636.347 0.11334
636.643 0.11667000000000005
636.939 0.10666999999999982
637.235 0.13667000000000007
637.531 0.11334
637.827 0.14000000000000012
638.123 0.14000000000000012
638.421 0.09667000000000003
638.716 0.11334
639.012 0.10666999999999982
639.308 0.1566700000000001
639.604 0.09667000000000003
639.9 0.14000000000000012
640.195 0.09667000000000003
640.491 0.1499999999999999
640.789 0.10999999999999988
641.085 0.11334
641.381 0.11334
641.676 0.10333999999999977
641.972 0.12666999999999984
642.268 0.12333999999999978
642.563 0.16666999999999987
642.859 0.11334
643.155 0.1200000000000001
643.451 0.10666999999999982
643.746 0.13334000000000001
644.044 0.09667000000000003
644.34 0.11667000000000005
644.635 0.10333999999999977
644.931 0.14000000000000012
645.227 0.1299999999999999
645.522 0.12333999999999978
645.818 0.1200000000000001
646.113 0.11334
646.409 0.1566700000000001
646.704 0.1299999999999999
647.0 0.13667000000000007
647.296 0.13334000000000001
647.591 0.12333999999999978
647.887 0.13334000000000001
648.182 0.12666999999999984
648.478 0.12333999999999978
648.773 0.14000000000000012
649.069 0.11667000000000005
649.366 0.13334000000000001
649.662 0.1299999999999999
649.957 0.10999999999999988
650.253 0.13667000000000007
650.548 0.10999999999999988
650.844 0.1433399999999998
651.139 0.12666999999999984
651.434 0.16666999999999987
651.73 0.14666999999999986
652.025 0.16999999999999993
652.321 0.09667000000000003
652.616 0.1499999999999999
652.911 0.1599999999999997
653.207 0.1599999999999997
653.502 0.2066699999999999
653.797 0.1566700000000001
654.093 0.19667000000000012
654.388 0.17334000000000005
654.683 0.18999999999999995
654.979 0.1766700000000001
655.274 0.18999999999999995
655.567 0.22333999999999987
655.863 0.19999999999999973
656.158 0.26666999999999996
656.453 0.25
656.748 0.2166699999999997
657.044 0.20333999999999985
657.339 0.21999999999999975
657.634 0.2533400000000001
657.929 0.24666999999999994
658.224 0.21999999999999975
658.52 0.26666999999999996
658.815 0.21999999999999975
659.11 0.26666999999999996
659.405 0.22333999999999987
659.7 0.2833399999999999
659.995 0.25666999999999973
660.291 0.2599999999999998
660.586 0.30667
660.879 0.24666999999999994
661.174 0.2633399999999999
661.469 0.2833399999999999
661.764 0.26666999999999996
662.059 0.23666999999999971
662.354 0.23666999999999971
662.649 0.25
662.944 0.1866699999999999
663.239 0.21334000000000009
663.534 0.20999999999999996
663.83 0.22666999999999993
664.122 0.20333999999999985
664.417 0.2066699999999999
664.713 0.19667000000000012
665.008 0.1766700000000001
665.302 0.1766700000000001
665.597 0.18333999999999984
665.892 0.18333999999999984
666.187 0.19667000000000012
666.48 0.1866699999999999
666.775 0.1766700000000001
667.07 0.15334000000000003
667.365 0.1766700000000001
667.66 0.16666999999999987
667.955 0.13667000000000007
668.25 0.1599999999999997
668.542 0.1566700000000001
668.837 0.13334000000000001
669.132 0.11667000000000005
669.427 0.1433399999999998
669.722 0.1433399999999998
670.017 0.11667000000000005
670.31 0.1299999999999999
670.604 0.16333999999999982
670.899 0.1433399999999998
671.194 0.11667000000000005
671.489 0.11667000000000005
671.783 0.14666999999999986
672.076 0.1299999999999999
672.371 0.14666999999999986
672.666 0.1433399999999998
672.96 0.1499999999999999
673.255 0.11667000000000005
673.548 0.14000000000000012
673.842 0.11667000000000005
674.137 0.09667000000000003
674.432 0.1433399999999998
674.727 0.14000000000000012
675.019 0.14000000000000012
675.314 0.1200000000000001
675.608 0.12666999999999984
675.903 0.11667000000000005
676.196 0.11334
676.49 0.1299999999999999
676.785 0.11667000000000005
677.079 0.11334
677.374 0.13667000000000007
677.667 0.12666999999999984
677.961 0.09667000000000003
678.256 0.1566700000000001
678.55 0.13334000000000001
678.843 0.10999999999999988
679.137 0.13667000000000007
679.432 0.14000000000000012
679.726 0.13334000000000001
680.019 0.1200000000000001
680.313 0.09333999999999998
680.608 0.12333999999999978
680.902 0.09333999999999998
681.195 0.09667000000000003
681.489 0.11667000000000005
681.784 0.13334000000000001
682.076 0.11334
682.37 0.10999999999999988
682.665 0.13667000000000007
682.959 0.1299999999999999
683.252 0.11334
683.546 0.13334000000000001
683.84 0.09667000000000003
684.133 0.10666999999999982
684.427 0.12666999999999984
684.721 0.1200000000000001
685.014 0.09333999999999998
685.308 0.12333999999999978
685.602 0.1200000000000001
685.895 0.08999999999999986
686.189 0.1299999999999999
686.483 0.10666999999999982
686.778 0.13334000000000001
687.07 0.08999999999999986
687.364 0.13667000000000007
687.658 0.12333999999999978
687.951 0.08999999999999986
688.245 0.10999999999999988
688.537 0.1200000000000001
688.831 0.12666999999999984
689.125 0.11334
689.418 0.10333999999999977
689.712 0.08333999999999975
690.006 0.1200000000000001
690.298 0.1200000000000001
690.592 0.08999999999999986
690.886 0.1200000000000001
691.178 0.10666999999999982
691.473 0.11667000000000005
691.767 0.11667000000000005
692.059 0.09667000000000003
692.353 0.10000000000000009
692.645 0.10333999999999977
692.939 0.10333999999999977
693.233 0.10333999999999977
693.525 0.1299999999999999
693.819 0.13667000000000007
694.111 0.10999999999999988
694.405 0.10333999999999977
694.699 0.11667000000000005
694.991 0.1299999999999999
695.285 0.10999999999999988
695.577 0.17334000000000005
695.871 0.1200000000000001
696.165 0.11334
696.457 0.10333999999999977
696.751 0.12333999999999978
697.043 0.11334
697.337 0.11334
697.629 0.10999999999999988
697.923 0.10333999999999977
698.217 0.13334000000000001
698.509 0.1433399999999998
698.802 0.09667000000000003
699.094 0.12666999999999984
699.388 0.09667000000000003
699.68 0.12333999999999978
699.974 0.10333999999999977
700.266 0.09333999999999998
700.56 0.12333999999999978
700.853 0.11667000000000005
701.145 0.1433399999999998
701.439 0.10333999999999977
701.731 0.08999999999999986
702.025 0.12666999999999984
702.316 0.09667000000000003
702.61 0.12666999999999984
702.902 0.11334
703.196 0.10999999999999988
703.487 0.12666999999999984
703.781 0.10666999999999982
704.073 0.13334000000000001
704.367 0.11667000000000005
704.658 0.10999999999999988
704.952 0.10666999999999982
705.244 0.14000000000000012
705.537 0.10333999999999977
705.829 0.10333999999999977
706.122 0.11334
706.414 0.1433399999999998
706.708 0.0866699999999998
706.999 0.11667000000000005
707.293 0.09333999999999998
