# Created: 2019-11-28 11:43:35.535314
# rshift intensity
50.0661 0.1599999999999997
50.3922 0.15833999999999993
50.7161 0.18333999999999984
51.0421 0.1383399999999999
51.3681 0.1483399999999997
51.6941 0.14000000000000012
52.0201 0.16666999999999987
52.3439 0.16333999999999982
52.6699 0.1766700000000001
52.9958 0.16500000000000004
53.3218 0.16999999999999993
53.6477 0.14500000000000002
53.9715 0.18500000000000005
54.2974 0.12834000000000012
54.6233 0.16166999999999998
54.9492 0.13166999999999973
55.2729 0.15833999999999993
55.5988 0.13667000000000007
55.9246 0.1349999999999998
56.2505 0.14500000000000002
56.5742 0.1349999999999998
56.9 0.1349999999999998
57.2258 0.13667000000000007
57.5516 0.14500000000000002
57.8752 0.13334000000000001
58.201 0.14166999999999996
58.5267 0.1200000000000001
58.8525 0.13166999999999973
59.1761 0.1299999999999999
59.5018 0.11166999999999971
59.8275 0.14500000000000002
60.1532 0.12666999999999984
60.4768 0.12166999999999994
60.8025 0.13334000000000001
61.1281 0.125
61.4517 0.12166999999999994
61.7773 0.10166999999999993
62.1029 0.11499999999999977
62.4286 0.10999999999999988
62.752 0.11833999999999989
63.0776 0.12666999999999984
63.4032 0.11166999999999971
63.7267 0.12834000000000012
64.0522 0.1349999999999998
64.3778 0.10499999999999998
64.7012 0.14500000000000002
65.0267 0.09667000000000003
65.3523 0.11833999999999989
65.6778 0.125
66.0011 0.12166999999999994
66.3266 0.11334
66.6521 0.12333999999999978
66.9754 0.0866699999999998
67.3009 0.12166999999999994
67.6263 0.09833999999999987
67.9496 0.10166999999999993
68.275 0.1383399999999999
68.6005 0.12166999999999994
68.9237 0.12166999999999994
69.2491 0.1433399999999998
69.5745 0.1566700000000001
69.8977 0.20167000000000002
70.2231 0.2166699999999997
70.5463 0.24833999999999978
70.8716 0.26666999999999996
71.1969 0.27834000000000003
71.5201 0.3383400000000001
71.8454 0.2933399999999997
72.1707 0.3049999999999997
72.4938 0.33000000000000007
72.8191 0.3049999999999997
73.1443 0.3366699999999998
73.4674 0.29834000000000005
73.7927 0.32667
74.1157 0.28667
74.4409 0.29000000000000004
74.7661 0.25666999999999973
75.0892 0.25
75.4144 0.20999999999999996
75.7395 0.19667000000000012
76.0625 0.19334000000000007
76.3877 0.16500000000000004
76.7107 0.14166999999999996
77.0358 0.1599999999999997
77.3609 0.12333999999999978
77.6839 0.08999999999999986
78.0089 0.0866699999999998
78.3319 0.08333999999999975
78.6569 0.0916699999999997
78.9798 0.0916699999999997
79.3049 0.05999999999999983
79.6299 0.09333999999999998
79.9528 0.08499999999999996
80.2778 0.07833999999999985
80.6006 0.07999999999999985
80.9256 0.06999999999999984
81.2506 0.06833999999999985
81.5734 0.08333999999999975
81.8984 0.08166999999999991
82.2212 0.06833999999999985
82.5461 0.07833999999999985
82.8689 0.058339999999999836
83.1938 0.06667000000000001
83.5165 0.06667000000000001
83.8414 0.07333999999999996
84.1663 0.06667000000000001
84.489 0.06833999999999985
84.8139 0.05667
85.1366 0.06833999999999985
85.4614 0.06499999999999995
85.7841 0.07999999999999985
86.1089 0.06999999999999984
86.4315 0.058339999999999836
86.7563 0.08166999999999991
87.0789 0.05333999999999994
87.4037 0.04666999999999999
87.7263 0.058339999999999836
88.051 0.06999999999999984
88.3736 0.06499999999999995
88.6983 0.08834000000000009
89.0209 0.0716699999999999
89.3456 0.06333999999999995
89.6681 0.0716699999999999
89.9928 0.06499999999999995
90.3153 0.04833999999999983
90.64 0.06833999999999985
90.9625 0.04833999999999983
91.2871 0.06999999999999984
91.6096 0.04499999999999993
91.9342 0.05499999999999994
92.2566 0.06333999999999995
92.5812 0.05333999999999994
92.9036 0.08499999999999996
93.2282 0.09499999999999975
93.5506 0.06667000000000001
93.8751 0.04499999999999993
94.1975 0.03666999999999998
94.522 0.06499999999999995
94.8444 0.043339999999999934
95.1689 0.058339999999999836
95.4912 0.05999999999999983
95.8157 0.06833999999999985
96.138 0.07499999999999996
96.4603 0.05667
96.7848 0.05667
97.107 0.04999999999999982
97.4314 0.043339999999999934
97.7537 0.04666999999999999
98.0781 0.05667
98.4003 0.04999999999999982
98.7247 0.06667000000000001
99.0469 0.06166999999999989
99.3691 0.058339999999999836
99.6935 0.06833999999999985
100.016 0.07333999999999996
100.34 0.06667000000000001
100.662 0.07499999999999996
100.986 0.07333999999999996
101.309 0.08166999999999991
101.631 0.08999999999999986
101.955 0.0866699999999998
102.277 0.08999999999999986
102.601 0.06499999999999995
102.923 0.058339999999999836
103.245 0.06166999999999989
103.57 0.09333999999999998
103.892 0.07667000000000002
104.216 0.058339999999999836
104.538 0.10333999999999977
104.86 0.06833999999999985
105.184 0.08834000000000009
105.506 0.07667000000000002
105.828 0.07667000000000002
106.152 0.07999999999999985
106.474 0.06499999999999995
106.798 0.058339999999999836
107.12 0.058339999999999836
107.442 0.05667
107.766 0.06667000000000001
108.088 0.04499999999999993
108.41 0.06333999999999995
108.734 0.05999999999999983
109.056 0.039999999999999813
109.378 0.04666999999999999
109.702 0.05333999999999994
110.024 0.04666999999999999
110.347 0.04499999999999993
110.669 0.039999999999999813
110.991 0.04833999999999983
111.315 0.04833999999999983
111.637 0.041669999999999874
111.959 0.06499999999999995
112.282 0.05166999999999988
112.604 0.06166999999999989
112.926 0.04999999999999982
113.25 0.04499999999999993
113.572 0.03833999999999982
113.893 0.043339999999999934
114.215 0.04833999999999983
114.539 0.033339999999999925
114.86 0.06833999999999985
115.182 0.05667
115.506 0.04999999999999982
115.828 0.021669999999999856
116.149 0.03499999999999992
116.473 0.021669999999999856
116.795 0.04833999999999983
117.116 0.04499999999999993
117.44 0.039999999999999813
117.761 0.03833999999999982
118.083 0.04833999999999983
118.405 0.03499999999999992
118.728 0.033339999999999925
119.05 0.04666999999999999
119.371 0.02666999999999997
119.693 0.04999999999999982
120.016 0.041669999999999874
120.338 0.04499999999999993
120.659 0.020000000000000018
120.983 0.03499999999999992
121.304 0.05333999999999994
121.626 0.06166999999999989
121.947 0.031669999999999865
122.271 0.04999999999999982
122.592 0.03499999999999992
122.914 0.02833999999999981
123.235 0.02666999999999997
123.559 0.02833999999999981
123.88 0.05333999999999994
124.201 0.04666999999999999
124.523 0.03833999999999982
124.846 0.05166999999999988
125.167 0.02833999999999981
125.489 0.029999999999999805
125.81 0.041669999999999874
126.131 0.039999999999999813
126.455 0.05166999999999988
126.776 0.05333999999999994
127.097 0.05999999999999983
127.418 0.0716699999999999
127.742 0.07667000000000002
128.063 0.07999999999999985
128.384 0.06999999999999984
128.705 0.08166999999999991
129.027 0.08333999999999975
129.35 0.06499999999999995
129.671 0.07333999999999996
129.992 0.07499999999999996
130.313 0.05499999999999994
130.634 0.06999999999999984
130.958 0.05999999999999983
131.279 0.06667000000000001
131.6 0.05333999999999994
131.921 0.06667000000000001
132.242 0.041669999999999874
132.563 0.058339999999999836
132.886 0.04499999999999993
133.207 0.033339999999999925
133.528 0.0183399999999998
133.849 0.031669999999999865
134.17 0.043339999999999934
134.491 0.041669999999999874
134.815 0.033339999999999925
135.136 0.02499999999999991
135.457 0.03666999999999998
135.777 0.023339999999999916
136.098 0.023339999999999916
136.419 0.03499999999999992
136.74 0.021669999999999856
137.063 0.033339999999999925
137.384 0.033339999999999925
137.705 0.029999999999999805
138.026 0.02499999999999991
138.347 0.03666999999999998
138.668 0.04999999999999982
138.989 0.04666999999999999
139.309 0.04833999999999983
139.632 0.041669999999999874
139.953 0.041669999999999874
140.274 0.04499999999999993
140.595 0.04666999999999999
140.916 0.05166999999999988
141.236 0.05499999999999994
141.557 0.06166999999999989
141.878 0.031669999999999865
142.199 0.04499999999999993
142.521 0.041669999999999874
142.842 0.043339999999999934
143.163 0.04499999999999993
143.483 0.033339999999999925
143.804 0.05166999999999988
144.125 0.05667
144.445 0.029999999999999805
144.766 0.039999999999999813
145.087 0.043339999999999934
145.407 0.04499999999999993
145.728 0.02833999999999981
146.049 0.03666999999999998
146.371 0.021669999999999856
146.692 0.03666999999999998
147.012 0.039999999999999813
147.333 0.021669999999999856
147.654 0.03499999999999992
147.974 0.029999999999999805
148.295 0.06499999999999995
148.615 0.05333999999999994
148.936 0.05166999999999988
149.256 0.05333999999999994
149.577 0.043339999999999934
149.897 0.041669999999999874
150.218 0.029999999999999805
150.538 0.02666999999999997
150.858 0.029999999999999805
151.179 0.033339999999999925
151.499 0.039999999999999813
151.82 0.0183399999999998
152.14 0.02833999999999981
152.46 0.03499999999999992
152.781 0.02833999999999981
153.101 0.021669999999999856
153.422 0.029999999999999805
153.742 0.033339999999999925
154.062 0.016669999999999963
154.382 0.023339999999999916
154.703 0.05333999999999994
155.023 0.05166999999999988
155.343 0.03833999999999982
155.664 0.029999999999999805
155.984 0.0183399999999998
156.304 0.031669999999999865
156.624 0.031669999999999865
156.945 0.031669999999999865
157.265 0.031669999999999865
157.585 0.023339999999999916
157.905 0.0183399999999998
158.225 0.03499999999999992
158.546 0.02499999999999991
158.866 0.031669999999999865
159.186 0.02666999999999997
159.506 0.014999999999999902
159.826 0.033339999999999925
160.146 0.02833999999999981
160.466 0.0183399999999998
160.786 0.043339999999999934
161.107 0.041669999999999874
161.427 0.04999999999999982
161.747 0.04999999999999982
162.067 0.05999999999999983
162.387 0.039999999999999813
162.707 0.04999999999999982
163.027 0.058339999999999836
163.347 0.05333999999999994
163.665 0.06499999999999995
163.985 0.05999999999999983
164.305 0.07333999999999996
164.625 0.06166999999999989
164.945 0.06333999999999995
165.265 0.06833999999999985
165.584 0.07999999999999985
165.904 0.06333999999999995
166.224 0.06499999999999995
166.544 0.0716699999999999
166.864 0.058339999999999836
167.184 0.05166999999999988
167.502 0.06833999999999985
167.822 0.04499999999999993
168.141 0.05499999999999994
168.461 0.033339999999999925
168.781 0.03666999999999998
169.101 0.05333999999999994
169.421 0.03833999999999982
169.74 0.05999999999999983
170.06 0.07833999999999985
170.378 0.031669999999999865
170.698 0.05667
171.017 0.04666999999999999
171.337 0.0183399999999998
171.657 0.033339999999999925
171.977 0.05333999999999994
172.296 0.02499999999999991
172.616 0.02666999999999997
172.934 0.03499999999999992
173.253 0.02833999999999981
173.573 0.021669999999999856
173.892 0.031669999999999865
174.212 0.014999999999999902
174.532 0.039999999999999813
174.851 0.02833999999999981
175.169 0.033339999999999925
175.488 0.031669999999999865
175.808 0.0183399999999998
176.128 0.02833999999999981
176.447 0.033339999999999925
176.767 0.020000000000000018
177.084 0.02499999999999991
177.404 0.03833999999999982
177.723 0.010000000000000009
178.043 0.006669999999999954
178.362 0.021669999999999856
178.679 0.02666999999999997
178.999 0.004999999999999893
179.318 0.02833999999999981
179.638 0.033339999999999925
179.957 0.029999999999999805
180.275 0.023339999999999916
180.594 0.016669999999999963
180.913 0.031669999999999865
181.233 0.02833999999999981
181.552 0.0
181.869 0.023339999999999916
182.189 0.02833999999999981
182.508 0.023339999999999916
182.828 0.016669999999999963
183.147 0.020000000000000018
183.464 0.016669999999999963
183.783 0.014999999999999902
184.103 0.014999999999999902
184.422 0.029999999999999805
184.739 0.031669999999999865
185.058 0.02499999999999991
185.378 0.031669999999999865
185.697 0.023339999999999916
186.014 0.010000000000000009
186.333 0.031669999999999865
186.652 0.020000000000000018
186.972 0.020000000000000018
187.289 0.02833999999999981
187.608 0.0033399999999998986
187.927 0.02833999999999981
188.246 0.041669999999999874
188.563 0.021669999999999856
188.882 0.023339999999999916
189.201 0.0033399999999998986
189.521 0.016669999999999963
189.838 0.033339999999999925
190.157 0.029999999999999805
190.476 0.020000000000000018
190.793 0.033339999999999925
191.112 0.016669999999999963
191.431 0.013339999999999907
191.75 0.02666999999999997
192.067 0.013339999999999907
192.386 0.033339999999999925
192.705 0.033339999999999925
193.022 0.02833999999999981
193.341 0.014999999999999902
193.66 0.02833999999999981
193.978 0.023339999999999916
194.295 0.029999999999999805
194.614 0.02833999999999981
194.933 0.02666999999999997
195.25 0.031669999999999865
195.569 0.014999999999999902
195.888 0.02666999999999997
196.205 0.02666999999999997
196.523 0.006669999999999954
196.842 0.02499999999999991
197.159 0.021669999999999856
197.478 0.029999999999999805
197.797 0.02666999999999997
198.113 0.03833999999999982
198.432 0.023339999999999916
198.751 0.008340000000000014
199.068 0.023339999999999916
199.386 0.010000000000000009
199.705 0.02833999999999981
200.022 0.0183399999999998
200.341 0.031669999999999865
200.657 0.033339999999999925
200.976 0.006669999999999954
201.295 0.04499999999999993
201.611 0.033339999999999925
201.93 0.02666999999999997
202.248 0.020000000000000018
202.565 0.023339999999999916
202.884 0.03666999999999998
203.202 0.033339999999999925
203.519 0.043339999999999934
203.837 0.043339999999999934
204.154 0.04499999999999993
204.473 0.011669999999999847
204.791 0.039999999999999813
205.108 0.020000000000000018
205.426 0.03499999999999992
205.743 0.04499999999999993
206.061 0.02499999999999991
206.38 0.031669999999999865
206.696 0.02499999999999991
207.015 0.039999999999999813
207.331 0.03499999999999992
207.649 0.0183399999999998
207.966 0.039999999999999813
208.284 0.03833999999999982
208.603 0.02499999999999991
208.919 0.04666999999999999
209.238 0.03666999999999998
209.554 0.03666999999999998
209.872 0.031669999999999865
210.189 0.04833999999999983
210.507 0.03666999999999998
210.825 0.03833999999999982
211.142 0.041669999999999874
211.46 0.03499999999999992
211.776 0.039999999999999813
212.095 0.03833999999999982
212.411 0.04666999999999999
212.729 0.03666999999999998
213.045 0.033339999999999925
213.364 0.02833999999999981
213.682 0.03666999999999998
213.998 0.029999999999999805
214.316 0.04833999999999983
214.632 0.03833999999999982
214.951 0.039999999999999813
215.267 0.05333999999999994
215.585 0.05166999999999988
215.901 0.041669999999999874
216.219 0.023339999999999916
216.535 0.04499999999999993
216.854 0.05499999999999994
217.17 0.04666999999999999
217.488 0.043339999999999934
217.804 0.043339999999999934
218.122 0.04499999999999993
218.438 0.03666999999999998
218.756 0.04499999999999993
219.072 0.04499999999999993
219.39 0.031669999999999865
219.706 0.02499999999999991
220.024 0.033339999999999925
220.34 0.04499999999999993
220.658 0.04833999999999983
220.974 0.043339999999999934
221.292 0.041669999999999874
221.608 0.04833999999999983
221.926 0.03833999999999982
222.242 0.041669999999999874
222.558 0.02666999999999997
222.876 0.05166999999999988
223.191 0.06833999999999985
223.509 0.021669999999999856
223.825 0.041669999999999874
224.143 0.04666999999999999
224.459 0.04999999999999982
224.777 0.04499999999999993
225.093 0.0716699999999999
225.411 0.04499999999999993
225.726 0.039999999999999813
226.042 0.05166999999999988
226.36 0.04833999999999983
226.676 0.03666999999999998
226.993 0.04666999999999999
227.309 0.041669999999999874
227.627 0.05166999999999988
227.943 0.05166999999999988
228.258 0.04499999999999993
228.576 0.04666999999999999
228.892 0.033339999999999925
229.21 0.05499999999999994
229.525 0.04833999999999983
229.841 0.03666999999999998
230.159 0.06999999999999984
230.474 0.05333999999999994
230.792 0.058339999999999836
231.107 0.06833999999999985
231.423 0.06166999999999989
231.741 0.04499999999999993
232.056 0.03833999999999982
232.374 0.04499999999999993
232.689 0.05667
233.005 0.058339999999999836
233.322 0.04499999999999993
233.638 0.07499999999999996
233.953 0.05333999999999994
234.271 0.06833999999999985
234.586 0.0716699999999999
234.904 0.05333999999999994
235.219 0.07333999999999996
235.535 0.06166999999999989
235.852 0.08499999999999996
236.168 0.08166999999999991
236.483 0.06499999999999995
236.801 0.05667
237.116 0.08999999999999986
237.431 0.07999999999999985
237.749 0.0866699999999998
238.064 0.10000000000000009
238.38 0.07667000000000002
238.697 0.10000000000000009
239.012 0.10999999999999988
239.328 0.10166999999999993
239.645 0.08166999999999991
239.96 0.09667000000000003
240.276 0.08333999999999975
240.593 0.09333999999999998
240.908 0.08166999999999991
241.223 0.08166999999999991
241.541 0.08499999999999996
241.856 0.08166999999999991
242.171 0.08333999999999975
242.488 0.05999999999999983
242.804 0.08166999999999991
243.119 0.07999999999999985
243.434 0.06833999999999985
243.751 0.0916699999999997
244.066 0.05999999999999983
244.382 0.04499999999999993
244.699 0.08834000000000009
245.014 0.06333999999999995
245.329 0.043339999999999934
245.644 0.05667
245.961 0.06499999999999995
246.276 0.06333999999999995
246.591 0.06499999999999995
246.908 0.04499999999999993
247.223 0.04833999999999983
247.538 0.05499999999999994
247.854 0.04499999999999993
248.171 0.04499999999999993
248.486 0.04499999999999993
248.801 0.05667
249.116 0.033339999999999925
249.433 0.02666999999999997
249.748 0.05333999999999994
250.062 0.04499999999999993
250.377 0.05499999999999994
250.694 0.041669999999999874
251.009 0.04833999999999983
251.324 0.058339999999999836
251.639 0.058339999999999836
251.954 0.05499999999999994
252.271 0.06166999999999989
252.586 0.041669999999999874
252.901 0.03499999999999992
253.215 0.05999999999999983
253.532 0.043339999999999934
253.847 0.06499999999999995
254.162 0.04666999999999999
254.477 0.031669999999999865
254.792 0.05166999999999988
255.108 0.05999999999999983
255.423 0.05166999999999988
255.738 0.06333999999999995
256.053 0.043339999999999934
256.367 0.04499999999999993
256.684 0.0716699999999999
256.999 0.03666999999999998
257.314 0.05166999999999988
257.628 0.06166999999999989
257.943 0.04666999999999999
258.258 0.043339999999999934
258.574 0.041669999999999874
258.889 0.041669999999999874
259.204 0.05999999999999983
259.518 0.058339999999999836
259.833 0.02833999999999981
260.147 0.043339999999999934
260.464 0.033339999999999925
260.779 0.04499999999999993
261.093 0.041669999999999874
261.408 0.041669999999999874
261.722 0.058339999999999836
262.037 0.029999999999999805
262.351 0.04666999999999999
262.668 0.033339999999999925
262.982 0.058339999999999836
263.297 0.058339999999999836
263.611 0.039999999999999813
263.926 0.05166999999999988
264.24 0.04833999999999983
264.555 0.04666999999999999
264.871 0.04666999999999999
265.186 0.05999999999999983
265.5 0.04833999999999983
265.815 0.043339999999999934
266.129 0.05166999999999988
266.443 0.039999999999999813
266.758 0.03833999999999982
267.072 0.058339999999999836
267.386 0.04499999999999993
267.701 0.043339999999999934
268.017 0.04499999999999993
268.331 0.041669999999999874
268.646 0.04666999999999999
268.96 0.04499999999999993
269.274 0.04499999999999993
269.589 0.05333999999999994
269.903 0.05333999999999994
270.217 0.06166999999999989
270.531 0.05333999999999994
270.846 0.043339999999999934
271.16 0.031669999999999865
271.474 0.04666999999999999
271.79 0.05667
272.105 0.033339999999999925
272.419 0.04499999999999993
272.733 0.04833999999999983
273.047 0.04833999999999983
273.361 0.05499999999999994
273.675 0.05999999999999983
273.989 0.05667
274.304 0.07999999999999985
274.618 0.06333999999999995
274.932 0.05333999999999994
275.246 0.05667
275.56 0.04999999999999982
275.874 0.07833999999999985
276.188 0.06833999999999985
276.502 0.06166999999999989
276.816 0.07333999999999996
277.13 0.07333999999999996
277.444 0.08333999999999975
277.758 0.07833999999999985
278.072 0.06667000000000001
278.386 0.06333999999999995
278.7 0.07999999999999985
279.014 0.08166999999999991
279.328 0.05999999999999983
279.642 0.06999999999999984
279.956 0.06999999999999984
280.27 0.058339999999999836
280.584 0.07999999999999985
280.897 0.06333999999999995
281.211 0.06833999999999985
281.525 0.04666999999999999
281.839 0.07333999999999996
282.153 0.07333999999999996
282.467 0.06667000000000001
282.781 0.07833999999999985
283.094 0.06833999999999985
283.408 0.05667
283.722 0.04833999999999983
284.036 0.04833999999999983
284.35 0.04499999999999993
284.663 0.06833999999999985
284.977 0.04499999999999993
285.291 0.05333999999999994
285.605 0.058339999999999836
285.918 0.06333999999999995
286.232 0.06667000000000001
286.546 0.04833999999999983
286.859 0.04499999999999993
287.171 0.043339999999999934
287.485 0.031669999999999865
287.798 0.043339999999999934
288.112 0.04833999999999983
288.426 0.04499999999999993
288.739 0.043339999999999934
289.053 0.041669999999999874
289.366 0.05166999999999988
289.68 0.05499999999999994
289.994 0.04999999999999982
290.307 0.04499999999999993
290.621 0.06833999999999985
290.934 0.04833999999999983
291.246 0.041669999999999874
291.559 0.05667
291.873 0.05333999999999994
292.186 0.033339999999999925
292.5 0.043339999999999934
292.813 0.03833999999999982
293.127 0.05166999999999988
293.44 0.06166999999999989
293.754 0.02499999999999991
294.065 0.03499999999999992
294.378 0.03666999999999998
294.692 0.04499999999999993
295.005 0.03833999999999982
295.319 0.05667
295.632 0.05333999999999994
295.945 0.043339999999999934
296.259 0.03833999999999982
296.57 0.031669999999999865
296.883 0.05166999999999988
297.197 0.04666999999999999
297.51 0.043339999999999934
297.823 0.04833999999999983
298.137 0.05999999999999983
298.45 0.05999999999999983
298.761 0.05667
299.074 0.05166999999999988
299.388 0.05166999999999988
299.701 0.05166999999999988
300.014 0.07667000000000002
300.327 0.03666999999999998
300.639 0.05499999999999994
300.952 0.058339999999999836
301.265 0.033339999999999925
301.578 0.04999999999999982
301.891 0.041669999999999874
302.202 0.031669999999999865
302.516 0.03666999999999998
302.829 0.05166999999999988
303.142 0.03666999999999998
303.455 0.05166999999999988
303.766 0.03666999999999998
304.079 0.04833999999999983
304.392 0.041669999999999874
304.705 0.04499999999999993
305.018 0.039999999999999813
305.329 0.05333999999999994
305.642 0.041669999999999874
305.955 0.043339999999999934
306.268 0.06166999999999989
306.582 0.05667
306.892 0.04499999999999993
307.205 0.04999999999999982
307.518 0.04833999999999983
307.831 0.04499999999999993
308.142 0.05333999999999994
308.455 0.03666999999999998
308.768 0.07499999999999996
309.081 0.04499999999999993
309.392 0.03499999999999992
309.705 0.033339999999999925
310.018 0.029999999999999805
310.331 0.05667
310.641 0.031669999999999865
310.954 0.04666999999999999
311.267 0.03666999999999998
311.58 0.06499999999999995
311.891 0.041669999999999874
312.204 0.021669999999999856
312.516 0.039999999999999813
312.829 0.04999999999999982
313.14 0.04833999999999983
313.453 0.04499999999999993
313.766 0.05333999999999994
314.076 0.06833999999999985
314.389 0.06166999999999989
314.702 0.058339999999999836
315.014 0.04833999999999983
315.325 0.05166999999999988
315.638 0.07667000000000002
315.951 0.05499999999999994
316.261 0.041669999999999874
316.574 0.058339999999999836
316.886 0.07333999999999996
317.197 0.04999999999999982
317.51 0.04666999999999999
317.822 0.05333999999999994
318.133 0.041669999999999874
318.445 0.06499999999999995
318.758 0.05999999999999983
319.069 0.05166999999999988
319.381 0.06166999999999989
319.694 0.06667000000000001
320.004 0.06667000000000001
320.317 0.06499999999999995
320.629 0.09333999999999998
320.94 0.039999999999999813
321.252 0.06833999999999985
321.565 0.07833999999999985
321.875 0.06999999999999984
322.188 0.06166999999999989
322.5 0.05999999999999983
322.811 0.0866699999999998
323.123 0.07667000000000002
323.436 0.07999999999999985
323.746 0.08499999999999996
324.058 0.07667000000000002
324.369 0.09499999999999975
324.681 0.0916699999999997
324.993 0.11334
325.304 0.09333999999999998
325.616 0.08999999999999986
325.928 0.10333999999999977
326.239 0.1299999999999999
326.551 0.11499999999999977
326.861 0.10166999999999993
327.174 0.12666999999999984
327.486 0.15334000000000003
327.796 0.1349999999999998
328.108 0.14666999999999986
328.419 0.15833999999999993
328.731 0.17833999999999994
329.043 0.14000000000000012
329.353 0.14666999999999986
329.666 0.19166999999999978
329.976 0.19999999999999973
330.288 0.18500000000000005
330.598 0.19166999999999978
330.91 0.20167000000000002
331.223 0.16999999999999993
331.533 0.1866699999999999
331.845 0.1866699999999999
332.155 0.1866699999999999
332.467 0.16500000000000004
332.777 0.17833999999999994
333.089 0.18167
333.401 0.16166999999999998
333.711 0.1483399999999997
334.023 0.11667000000000005
334.333 0.15166999999999975
334.645 0.15166999999999975
334.955 0.1349999999999998
335.267 0.13166999999999973
335.577 0.12834000000000012
335.889 0.11667000000000005
336.199 0.12166999999999994
336.511 0.12834000000000012
336.821 0.11667000000000005
337.133 0.09333999999999998
337.443 0.10999999999999988
337.755 0.11499999999999977
338.065 0.08999999999999986
338.377 0.12834000000000012
338.687 0.10666999999999982
338.999 0.12166999999999994
339.311 0.09333999999999998
339.621 0.11334
339.93 0.13667000000000007
340.242 0.10499999999999998
340.552 0.15334000000000003
340.864 0.11667000000000005
341.174 0.10666999999999982
341.485 0.11166999999999971
341.795 0.14166999999999996
342.107 0.14166999999999996
342.417 0.13334000000000001
342.729 0.125
343.038 0.1299999999999999
343.35 0.15334000000000003
343.66 0.1383399999999999
343.971 0.13334000000000001
344.281 0.1349999999999998
344.593 0.14166999999999996
344.903 0.14666999999999986
345.214 0.1483399999999997
345.524 0.1383399999999999
345.833 0.125
346.145 0.16166999999999998
346.455 0.12834000000000012
346.766 0.14500000000000002
347.076 0.14166999999999996
347.388 0.12333999999999978
347.697 0.14166999999999996
348.007 0.15334000000000003
348.318 0.11667000000000005
348.628 0.14500000000000002
348.939 0.1383399999999999
349.249 0.11166999999999971
349.561 0.1299999999999999
349.87 0.13334000000000001
350.179 0.15334000000000003
350.491 0.15166999999999975
350.8 0.11667000000000005
351.112 0.125
351.421 0.13166999999999973
351.731 0.11667000000000005
352.042 0.13334000000000001
352.352 0.13334000000000001
352.663 0.12666999999999984
352.973 0.1299999999999999
353.282 0.13166999999999973
353.593 0.11334
353.903 0.12166999999999994
354.212 0.11166999999999971
354.523 0.13667000000000007
354.833 0.1083400000000001
355.144 0.125
355.453 0.13166999999999973
355.763 0.1483399999999997
356.074 0.10499999999999998
356.383 0.1499999999999999
356.693 0.11667000000000005
357.004 0.11166999999999971
357.313 0.1200000000000001
357.622 0.11166999999999971
357.934 0.11334
358.243 0.12166999999999994
358.552 0.11166999999999971
358.863 0.12333999999999978
359.172 0.13667000000000007
359.482 0.1349999999999998
359.793 0.125
360.102 0.12834000000000012
360.411 0.1200000000000001
360.722 0.10000000000000009
361.031 0.11334
361.34 0.1299999999999999
361.652 0.1299999999999999
361.961 0.11833999999999989
362.27 0.11166999999999971
362.581 0.14000000000000012
362.89 0.11166999999999971
363.199 0.10000000000000009
363.51 0.10999999999999988
363.819 0.10666999999999982
364.128 0.13166999999999973
364.437 0.10999999999999988
364.748 0.10666999999999982
365.057 0.11499999999999977
365.366 0.10166999999999993
365.677 0.11499999999999977
365.986 0.10333999999999977
366.295 0.1200000000000001
366.604 0.07999999999999985
366.915 0.09667000000000003
367.224 0.1083400000000001
367.533 0.125
367.841 0.10333999999999977
368.152 0.0866699999999998
368.461 0.12666999999999984
368.77 0.10999999999999988
369.079 0.10000000000000009
369.39 0.10666999999999982
369.699 0.08499999999999996
370.007 0.09833999999999987
370.316 0.10333999999999977
370.627 0.10666999999999982
370.936 0.10000000000000009
371.245 0.10999999999999988
371.553 0.11499999999999977
371.864 0.10666999999999982
372.173 0.1200000000000001
372.482 0.11667000000000005
372.79 0.11166999999999971
373.099 0.12166999999999994
373.41 0.11166999999999971
373.718 0.10666999999999982
374.027 0.10166999999999993
374.336 0.10000000000000009
374.644 0.125
374.955 0.12166999999999994
375.264 0.10666999999999982
375.572 0.1083400000000001
375.881 0.10333999999999977
376.19 0.11166999999999971
376.5 0.1299999999999999
376.809 0.1200000000000001
377.117 0.10333999999999977
377.426 0.10666999999999982
377.734 0.1200000000000001
378.043 0.11833999999999989
378.354 0.0916699999999997
378.662 0.12333999999999978
378.971 0.11499999999999977
379.279 0.13166999999999973
379.588 0.10499999999999998
379.896 0.10000000000000009
380.207 0.12333999999999978
380.515 0.12834000000000012
380.823 0.12666999999999984
381.132 0.11667000000000005
381.44 0.12666999999999984
381.749 0.12166999999999994
382.057 0.12834000000000012
382.368 0.1349999999999998
382.676 0.11334
382.984 0.14166999999999996
383.293 0.11499999999999977
383.601 0.1349999999999998
383.909 0.1349999999999998
384.218 0.1499999999999999
384.526 0.12666999999999984
384.836 0.12333999999999978
385.145 0.14000000000000012
385.453 0.1433399999999998
385.761 0.1349999999999998
386.07 0.1483399999999997
386.378 0.13667000000000007
386.686 0.15833999999999993
386.994 0.14666999999999986
387.302 0.1349999999999998
387.611 0.13667000000000007
387.921 0.15166999999999975
388.229 0.15334000000000003
388.537 0.11334
388.846 0.1499999999999999
389.154 0.1683399999999997
389.462 0.14666999999999986
389.77 0.18333999999999984
390.078 0.16666999999999987
390.386 0.16166999999999998
390.694 0.14500000000000002
391.002 0.16166999999999998
391.311 0.14000000000000012
391.619 0.16166999999999998
391.927 0.16333999999999982
392.237 0.1566700000000001
392.545 0.16166999999999998
392.853 0.1433399999999998
393.161 0.16166999999999998
393.469 0.14000000000000012
393.777 0.1483399999999997
394.085 0.1683399999999997
394.393 0.14666999999999986
394.701 0.14666999999999986
395.009 0.1383399999999999
395.317 0.1549999999999998
395.625 0.16666999999999987
395.933 0.17499999999999982
396.241 0.1483399999999997
396.549 0.14000000000000012
396.856 0.15166999999999975
397.164 0.16166999999999998
397.472 0.15833999999999993
397.78 0.16333999999999982
398.088 0.17334000000000005
398.396 0.15334000000000003
398.704 0.16500000000000004
399.012 0.17999999999999972
399.319 0.1683399999999997
399.627 0.1483399999999997
399.935 0.1683399999999997
400.243 0.17166999999999977
400.551 0.16999999999999993
400.858 0.1683399999999997
401.166 0.18999999999999995
401.474 0.16166999999999998
401.782 0.19833999999999996
402.089 0.19833999999999996
402.397 0.17334000000000005
402.705 0.19833999999999996
403.012 0.19334000000000007
403.32 0.18167
403.626 0.21334000000000009
403.933 0.22167000000000003
404.241 0.19667000000000012
404.549 0.2116699999999998
404.856 0.2333400000000001
405.164 0.20167000000000002
405.472 0.2166699999999997
405.779 0.21499999999999986
406.087 0.21499999999999986
406.394 0.2250000000000001
406.702 0.2166699999999997
407.009 0.2549999999999999
407.317 0.2599999999999998
407.625 0.2633399999999999
407.932 0.24167000000000005
408.238 0.27
408.545 0.2599999999999998
408.853 0.25
409.16 0.3016700000000001
409.468 0.2799999999999998
409.775 0.27834000000000003
410.082 0.31000000000000005
410.39 0.31499999999999995
410.697 0.30333999999999994
411.005 0.34499999999999975
411.31 0.33000000000000007
411.618 0.355
411.925 0.33000000000000007
412.232 0.38166999999999973
412.54 0.3783400000000001
412.847 0.3900000000000001
413.154 0.4049999999999998
413.462 0.4083399999999999
413.767 0.4299999999999997
414.074 0.4750000000000001
414.382 0.47167000000000003
414.689 0.48999999999999977
414.996 0.5233399999999997
415.304 0.5333399999999999
415.611 0.56
415.916 0.5916699999999997
416.223 0.6349999999999998
416.531 0.6433399999999998
416.838 0.6583399999999999
417.145 0.69
417.452 0.72167
417.757 0.7683399999999998
418.065 0.7999999999999998
418.372 0.7949999999999999
418.679 0.8366699999999998
418.986 0.9099999999999997
419.291 0.9416699999999998
419.598 0.9566699999999999
419.906 0.9783399999999998
420.213 0.9933399999999999
420.52 1.0150000000000001
420.825 1.08834
421.132 1.09667
421.439 1.1233399999999998
421.746 1.17834
422.053 1.19334
422.358 1.2083399999999997
422.665 1.1949999999999998
422.972 1.2316699999999998
423.279 1.1749999999999998
423.586 1.205
423.891 1.1999999999999997
424.198 1.1949999999999998
424.505 1.21
424.812 1.1999999999999997
425.117 1.1599999999999997
425.424 1.1549999999999998
425.731 1.13667
426.038 1.04
426.343 1.02
426.65 0.9950000000000001
426.956 0.99667
427.263 0.97167
427.568 0.9633400000000001
427.875 0.94
428.182 0.895
428.489 0.8483399999999999
428.793 0.8483399999999999
429.1 0.8483399999999999
429.407 0.8133399999999997
429.714 0.7716699999999999
430.019 0.7283399999999998
430.325 0.7149999999999999
430.632 0.6516699999999997
430.937 0.6666699999999999
431.244 0.6316699999999997
431.55 0.6149999999999998
431.857 0.6316699999999997
432.162 0.59667
432.469 0.59334
432.775 0.5233399999999997
433.08 0.5349999999999997
433.387 0.5099999999999998
433.693 0.5249999999999999
433.998 0.4750000000000001
434.305 0.47167000000000003
434.611 0.43999999999999995
434.916 0.44334000000000007
435.222 0.3783400000000001
435.529 0.4266700000000001
435.833 0.43500000000000005
436.14 0.3999999999999999
436.447 0.41999999999999993
436.751 0.40334000000000003
437.058 0.37166999999999994
437.364 0.38334
437.669 0.34499999999999975
437.975 0.3500000000000001
438.282 0.355
438.586 0.3599999999999999
438.893 0.34833999999999987
439.199 0.3583400000000001
439.504 0.3566699999999998
439.81 0.29834000000000005
440.117 0.3366699999999998
440.421 0.27666999999999975
440.727 0.2633399999999999
441.032 0.30667
441.338 0.31999999999999984
441.645 0.2883399999999998
441.949 0.2883399999999998
442.255 0.31000000000000005
442.562 0.2599999999999998
442.866 0.27834000000000003
443.172 0.2816700000000001
443.477 0.27
443.783 0.29499999999999993
444.089 0.25666999999999973
444.394 0.30333999999999994
444.7 0.3016700000000001
445.004 0.29000000000000004
445.31 0.2650000000000001
445.617 0.24833999999999978
445.921 0.2833399999999999
446.227 0.2683399999999998
446.531 0.2683399999999998
446.838 0.2799999999999998
447.142 0.29666999999999977
447.448 0.25666999999999973
447.754 0.2533400000000001
448.058 0.2999999999999998
448.365 0.2749999999999999
448.669 0.27
448.975 0.30667
449.279 0.2999999999999998
449.585 0.2833399999999999
449.889 0.31834000000000007
450.195 0.27666999999999975
450.499 0.29000000000000004
450.805 0.2816700000000001
451.111 0.2650000000000001
451.416 0.29499999999999993
451.722 0.2816700000000001
452.026 0.27166999999999986
452.332 0.27166999999999986
452.636 0.2999999999999998
452.942 0.2599999999999998
453.246 0.25834
453.552 0.3016700000000001
453.856 0.23166999999999982
454.162 0.25834
454.465 0.25666999999999973
454.771 0.2549999999999999
455.075 0.2549999999999999
455.381 0.2450000000000001
455.685 0.21334000000000009
455.991 0.27666999999999975
456.295 0.21999999999999975
456.601 0.19499999999999984
456.905 0.2250000000000001
457.211 0.20999999999999996
457.514 0.21334000000000009
457.82 0.19667000000000012
458.124 0.22167000000000003
458.43 0.18833999999999973
458.734 0.18167
459.04 0.19499999999999984
459.343 0.19999999999999973
459.647 0.19833999999999996
459.953 0.20167000000000002
460.257 0.22999999999999998
460.562 0.19334000000000007
460.866 0.19166999999999978
461.172 0.17334000000000005
461.476 0.17833999999999994
461.781 0.19999999999999973
462.085 0.19499999999999984
462.389 0.19833999999999996
462.694 0.19166999999999978
462.998 0.20167000000000002
463.304 0.19999999999999973
463.607 0.1866699999999999
463.913 0.17999999999999972
464.217 0.17334000000000005
464.52 0.18167
464.826 0.18333999999999984
465.129 0.17833999999999994
465.435 0.17833999999999994
465.739 0.19667000000000012
466.042 0.18833999999999973
466.348 0.17999999999999972
466.651 0.20500000000000007
466.957 0.18500000000000005
467.26 0.19499999999999984
467.564 0.18500000000000005
467.869 0.17999999999999972
468.173 0.19833999999999996
468.478 0.18167
468.782 0.19334000000000007
469.085 0.20500000000000007
469.391 0.18833999999999973
469.694 0.19334000000000007
469.997 0.19833999999999996
470.303 0.21499999999999986
470.606 0.21334000000000009
470.912 0.17999999999999972
471.215 0.20999999999999996
471.518 0.22999999999999998
471.824 0.20999999999999996
472.127 0.22666999999999993
472.431 0.20999999999999996
472.736 0.2333400000000001
473.039 0.23499999999999988
473.342 0.24833999999999978
473.648 0.25166999999999984
473.951 0.2650000000000001
474.254 0.25166999999999984
474.56 0.2833399999999999
474.863 0.2749999999999999
475.166 0.2933399999999997
475.471 0.29000000000000004
475.775 0.29499999999999993
476.078 0.3383400000000001
476.383 0.43833999999999973
476.686 0.5249999999999999
476.99 0.61334
477.295 0.605
477.598 0.6583399999999999
477.901 0.6366700000000001
478.204 0.6783399999999999
478.509 0.6516699999999997
478.812 0.6933400000000001
479.116 0.65334
479.421 0.6933400000000001
479.724 0.6833399999999998
480.027 0.6683399999999997
480.33 0.6966700000000001
480.635 0.6433399999999998
480.938 0.6666699999999999
481.241 0.66167
481.544 0.6916699999999998
481.849 0.6699999999999999
482.152 0.6766700000000001
482.455 0.6499999999999999
482.758 0.6383399999999999
483.063 0.6266699999999998
483.366 0.6016699999999999
483.669 0.50834
483.972 0.4750000000000001
484.277 0.38667000000000007
484.58 0.34334
484.883 0.31000000000000005
485.186 0.2916699999999999
485.491 0.2933399999999997
485.794 0.2733399999999997
486.097 0.27834000000000003
486.4 0.26666999999999996
486.704 0.2833399999999999
487.007 0.24167000000000005
487.31 0.2333400000000001
487.613 0.2433399999999999
487.916 0.2166699999999997
488.221 0.22666999999999993
488.523 0.22167000000000003
488.826 0.21999999999999975
489.129 0.2333400000000001
489.432 0.21499999999999986
489.737 0.20333999999999985
490.039 0.22666999999999993
490.342 0.18333999999999984
490.645 0.1499999999999999
490.947 0.18333999999999984
491.25 0.17833999999999994
491.555 0.1683399999999997
491.858 0.15334000000000003
492.16 0.18333999999999984
492.463 0.17499999999999982
492.766 0.1549999999999998
493.068 0.1433399999999998
493.4375 0.15898961044340781
493.74199999999996 0.15982461044340818
494.0475 0.15481961044340803
494.35249999999996 0.15148961044340797
494.65700000000004 0.13898961044340802
494.9625 0.15398961044340792
495.115 0.14565461044340794
495.41949999999997 0.13565461044340793
495.72450000000003 0.15565461044340817
496.0285 0.13481961044340823
496.3345 0.12732461044340798
496.639 0.1323246104434081
496.9435 0.13648961044340785
497.249 0.1439896104434079
497.55449999999996 0.1281546104434081
497.85900000000004 0.13148961044340796
498.164 0.124819610443408
498.469 0.11148961044340794
498.774 0.11731961044340794
499.078 0.137324610443408
499.38300000000004 0.11315461044340797
499.688 0.11898961044340822
499.993 0.12065461044340803
500.298 0.10648961044340804
500.60249999999996 0.118989610443408
500.908 0.1173246104434082
501.2125 0.11148961044340816
501.5165 0.11565461044340791
501.8215 0.11231961044340805
502.12649999999996 0.11232461044340808
502.4315 0.10648961044340804
502.7355 0.12231961044340806
503.0395 0.10982461044340791
503.345 0.09482461044340801
503.6495 0.1039896104434081
503.95399999999995 0.11648961044340805
504.259 0.09648961044340804
504.5645 0.09981961044340798
504.869 0.11148961044340816
505.173 0.1039896104434081
505.477 0.10231961044340804
505.78200000000004 0.10065461044340801
506.087 0.10982461044340813
506.39099999999996 0.1173246104434082
506.69550000000004 0.09731961044340814
506.9995 0.09815461044340797
507.304 0.09482461044340801
507.60900000000004 0.09148961044340792
507.9135 0.08648961044340803
508.2175 0.09232461044340806
508.5215 0.0939896104434081
508.82550000000003 0.11148961044340794
509.131 0.08981961044340808
509.4355 0.09481961044340798
509.7395 0.09231961044340803
510.0435 0.0881596104434081
510.34749999999997 0.08648961044340804
510.6515 0.08732461044340818
510.957 0.09732461044340796
511.26099999999997 0.08231961044340803
511.565 0.10815461044340785
511.869 0.0948196104434081
512.173 0.10065461044340801
512.4770000000001 0.09148961044340792
512.782 0.09648961044340804
513.086 0.09482461044340813
513.39 0.08565461044340812
513.694 0.09732461044340796
513.998 0.09648961044340805
514.302 0.0889896104434081
514.606 0.09065461044340802
514.9110000000001 0.08482461044340812
515.2149999999999 0.0998246104434079
515.519 0.0839896104434081
515.8230000000001 0.09481961044340798
515.9735000000001 0.09815461044340784
516.2774999999999 0.10648961044340804
516.5815 0.11148961044340794
516.8855000000001 0.0998246104434079
517.1895 0.09232461044340784
517.4935 0.10232461044340807
517.797 0.09982461044340812
518.101 0.1056546104434079
518.405 0.1039896104434081
518.7090000000001 0.10898961044340799
519.0129999999999 0.10648961044340804
519.3165 0.09398961044340799
519.62 0.10732461044340796
519.924 0.10982461044340791
520.2280000000001 0.10898961044340799
520.533 0.09231961044340804
520.8365 0.11315461044340797
521.1405 0.11231961044340805
521.443 0.13065961044340807
521.7465 0.11065961044340805
522.0505 0.11482461044340803
522.3545 0.11315461044340797
522.6575 0.12648961044340784
522.9615 0.118989610443408
523.2655 0.134819610443408
523.5685000000001 0.147324610443408
523.8725 0.13898961044340802
524.1755 0.118989610443408
524.479 0.13148961044340796
524.7835 0.11232461044340808
525.087 0.12982461044340793
525.3910000000001 0.12982461044340793
525.694 0.13398961044340812
525.998 0.13898961044340802
526.302 0.137324610443408
526.604 0.1273246104434082
526.908 0.10898961044340799
527.211 0.12731961044340817
527.515 0.1056546104434079
527.818 0.11398961044340811
528.1220000000001 0.12148961044340795
528.4245000000001 0.10648961044340804
528.7280000000001 0.11565461044340791
529.0315 0.11981961044340811
529.3344999999999 0.128989610443408
529.6385 0.11815461044340808
529.9415 0.11815461044340808
530.2445 0.12148961044340817
530.5475 0.11482461044340803
530.8515 0.11982461044340792
531.1545 0.11482461044340803
531.4580000000001 0.118989610443408
531.7615 0.10982461044340813
532.0635 0.114819610443408
532.367 0.12148961044340795
532.6705 0.11648961044340805
532.974 0.11482461044340803
533.277 0.11232461044340808
533.5795 0.1281546104434081
533.883 0.12231961044340806
534.186 0.128989610443408
534.4894999999999 0.12315461044340797
534.793 0.13065961044340807
535.095 0.13315961044340802
535.3985 0.11732461044340797
535.7015 0.11398961044340811
536.005 0.11815461044340808
536.307 0.14231961044340807
536.6105 0.12982461044340793
536.761 0.128989610443408
537.0645 0.134819610443408
537.3665000000001 0.13065461044340804
537.6700000000001 0.11565461044340813
537.973 0.11982461044340792
538.2760000000001 0.124819610443408
538.577 0.12232461044340809
538.8800000000001 0.1173246104434082
539.1835 0.12232461044340809
539.4870000000001 0.1173246104434082
539.789 0.13148961044340796
540.0920000000001 0.12482461044340804
540.395 0.14565461044340794
540.698 0.12231961044340806
541.0 0.11648961044340805
541.3035 0.14065961044340808
541.6065 0.13815461044340788
541.9085 0.1239896104434079
542.2115 0.13565961044340819
542.5145 0.12232461044340809
542.8164999999999 0.11898961044340822
543.1185 0.1439896104434079
543.4214999999999 0.13148961044340818
543.7245 0.13648961044340807
544.0264999999999 0.143154610443408
544.3295 0.13898961044340802
544.6324999999999 0.15898961044340804
544.9355 0.14482461044340805
545.2375 0.1523246104434079
545.5395000000001 0.15482461044340806
545.8425 0.16398961044340793
546.144 0.16898961044340804
546.447 0.16065461044340806
546.75 0.16398961044340793
547.052 0.191489610443408
547.355 0.18648961044340812
547.658 0.2048246104434081
547.9585 0.21732461044340806
548.2615 0.20731961044340802
548.5640000000001 0.20815961044340797
548.866 0.22398961044340798
549.169 0.2348196104434081
549.4715 0.24482461044340792
549.7735 0.26898961044340813
550.0754999999999 0.26065461044340793
550.377 0.2789896104434079
550.6795 0.28398961044340804
550.9825 0.30481961044340816
551.2845 0.31732461044340793
551.5875 0.3339896104434081
551.8895 0.364824610443408
552.1905 0.3598196104434081
552.4935 0.37565961044340795
552.7950000000001 0.39398961044340813
553.0975000000001 0.46732461044340806
553.4005 0.431489610443408
553.701 0.411489610443408
554.0035 0.4306596104434081
554.306 0.41315961044340804
554.608 0.411489610443408
554.9105 0.41982461044340796
555.212 0.41898961044340804
555.514 0.39148961044340796
555.816 0.407324610443408
556.1179999999999 0.41815961044340794
556.421 0.388989610443408
556.722 0.37065461044340803
557.024 0.38815961044340813
557.173 0.367324610443408
557.4755 0.36148961044340794
557.778 0.378989610443408
558.0799999999999 0.338989610443408
558.381 0.29982461044340786
558.6825 0.306489610443408
558.985 0.28981961044340804
559.2864999999999 0.3098246104434081
559.5889999999999 0.286489610443408
559.8895 0.24982461044340804
560.192 0.24565461044340803
560.4945 0.24065961044340795
560.796 0.2406546104434079
561.0975000000001 0.23148961044340804
561.3985 0.20481961044340807
561.701 0.19898961044340807
562.0025 0.20648961044340813
562.3035 0.19065461044340787
562.6055 0.163154610443408
562.9075 0.16565461044340796
563.2085 0.1714896104434082
563.5105 0.15315961044340803
563.8115 0.17315461044340802
564.114 0.16148961044340798
564.415 0.16398961044340793
564.7165 0.15898961044340804
565.018 0.15565461044340795
565.3199999999999 0.16232461044340812
565.6199999999999 0.15065461044340805
565.9225 0.137324610443408
566.2239999999999 0.14232461044340788
566.526 0.13648961044340807
566.826 0.13482461044340804
567.129 0.124819610443408
567.4300000000001 0.14231961044340807
567.731 0.12232461044340809
568.0319999999999 0.12065461044340803
568.3340000000001 0.13315461044340798
568.6355000000001 0.12315461044340797
568.9365 0.12065961044340806
569.238 0.12898961044340823
569.54 0.12732461044340798
569.84 0.13648961044340807
570.142 0.1239896104434079
570.4435 0.1323246104434081
570.7435 0.10815461044340807
571.0455 0.1323246104434081
571.3465000000001 0.11398961044340811
571.6475 0.11482461044340803
571.9485 0.12065461044340803
572.2505 0.11398961044340788
572.5505 0.11482461044340803
572.8525 0.0981596104434081
573.1535 0.113159610443408
573.4535000000001 0.11148961044340816
573.756 0.09482461044340802
574.057 0.11648961044340805
574.358 0.0981596104434081
574.6585 0.118989610443408
574.9605 0.09981961044340809
575.2605000000001 0.10148961044340793
575.5615 0.11231961044340805
575.8625 0.10231961044340804
576.1635 0.10315961044340821
576.4649999999999 0.0998246104434079
576.765 0.09732461044340796
577.066 0.09815961044340787
577.3679999999999 0.09731961044340803
577.517 0.095654610443408
577.817 0.09482461044340801
578.1189999999999 0.0839896104434081
578.4185 0.09648961044340804
578.7204999999999 0.10648961044340804
579.021 0.10232461044340807
579.3209999999999 0.08232461044340805
579.623 0.09148961044340792
579.9235 0.09398961044340809
580.2235000000001 0.10898961044340799
580.5255 0.08481961044340798
580.825 0.08815461044340796
581.1265000000001 0.10565461044340813
581.4275 0.09982461044340812
581.7275 0.09232461044340808
582.0285 0.08815961044340787
582.3285000000001 0.08148961044340802
582.6295 0.10232461044340807
582.9300000000001 0.09148961044340805
583.2305 0.09732461044340796
583.5315 0.080654610443408
583.832 0.09565461044340812
584.1324999999999 0.0839896104434081
584.4324999999999 0.09232461044340819
584.734 0.08982461044340813
585.0335 0.09481961044340798
585.3340000000001 0.09065461044340789
585.636 0.09565461044340802
585.935 0.07982461044340812
586.2360000000001 0.08648961044340804
586.5360000000001 0.07815461044340806
586.837 0.07815461044340806
587.137 0.08148961044340815
587.4369999999999 0.09315961044340798
587.738 0.08815461044340794
588.038 0.08565461044340812
588.338 0.08648961044340804
588.6379999999999 0.08482461044340801
588.9390000000001 0.08898961044340808
589.239 0.08315461044340806
589.539 0.08565461044340812
589.84 0.08815461044340807
590.1405 0.07315961044340796
590.44 0.08815461044340796
590.7405 0.0839896104434081
591.0409999999999 0.09148961044340805
591.3415 0.09648961044340804
591.6405 0.09065961044340794
591.9414999999999 0.07815461044340806
592.2415 0.095654610443408
592.5419999999999 0.0881596104434081
592.8415 0.09981961044340809
593.1415 0.08981961044340799
593.4425 0.10398961044340788
593.7425000000001 0.08732461044340807
594.0415 0.09482461044340801
594.3420000000001 0.08482461044340812
594.6424999999999 0.09232461044340808
594.9415 0.10065461044340801
595.242 0.090654610443408
595.5409999999999 0.09398961044340799
595.8415 0.09815961044340787
596.1415 0.08982461044340811
596.442 0.10315961044340821
596.741 0.11398961044340811
597.0415 0.10148961044340815
597.191 0.10815461044340807
597.49 0.10148961044340793
597.7905000000001 0.1048196104434081
598.0895 0.11482461044340803
598.3895 0.09648961044340792
598.689 0.10731961044340793
598.989 0.10648961044340804
599.2895 0.09565461044340812
599.5885000000001 0.09981961044340809
599.8885 0.10731961044340793
600.1875 0.10065961044340804
600.4884999999999 0.10148961044340804
600.7875 0.10982461044340791
601.087 0.10898961044340799
601.3875 0.10231961044340804
601.6865 0.11065961044340805
601.9865 0.12981961044340812
602.2864999999999 0.1098196104434081
602.5865 0.12065461044340803
602.8855000000001 0.13148961044340818
603.1845000000001 0.11148961044340794
603.4845 0.1231546104434082
603.7835 0.11648961044340805
604.0835 0.12148961044340817
604.3835 0.12398961044340812
604.6825 0.11232461044340808
604.982 0.1339896104434079
605.281 0.13398961044340812
605.581 0.12482461044340804
605.88 0.1281596104434079
606.179 0.14065461044340805
606.479 0.1414896104434082
606.779 0.15065461044340805
607.078 0.15481961044340803
607.3779999999999 0.1623246104434079
607.6765 0.1664896104434081
607.976 0.1781546104434079
608.275 0.177319610443408
608.5740000000001 0.1906546104434081
608.874 0.1906596104434079
609.173 0.2139896104434082
609.4715 0.2189896104434081
609.7725 0.2148246104434079
610.071 0.2048246104434081
610.37 0.2406546104434079
610.6695 0.23815461044340797
610.9685 0.26148961044340807
611.267 0.24982461044340804
611.567 0.24065461044340813
611.8655 0.27065961044340797
612.1645 0.25482461044340815
612.4645 0.2714896104434081
612.7625 0.2714896104434081
613.0615 0.29481961044340793
613.3615 0.27565461044340805
613.6595 0.27065461044340794
613.9585 0.28898961044340793
614.2595 0.262324610443408
614.5575 0.2714896104434081
614.8565000000001 0.278154610443408
615.1565 0.2723246104434082
615.4545 0.14815961044340792
615.7535 0.2473246104434081
616.053 0.2389896104434081
616.3515 0.2231596104434081
616.6500000000001 0.23648961044340794
616.7985000000001 0.215654610443408
617.097 0.18898961044340806
617.3965000000001 0.21148961044340803
617.6955 0.191489610443408
617.9935 0.16398961044340793
618.2935 0.197319610443408
618.5915 0.1723246104434079
618.8905 0.1714896104434082
619.1885 0.15898961044340804
619.4884999999999 0.15981961044340792
619.7864999999999 0.1439896104434079
620.085 0.15482461044340806
620.3835 0.13148961044340818
620.683 0.13898961044340802
620.9815 0.11815961044340811
621.28 0.14565461044340816
621.5785 0.12815961044340812
621.8775 0.13565961044340796
622.1759999999999 0.13065461044340804
622.4745 0.13148961044340796
622.773 0.11398961044340788
623.072 0.11731961044340794
623.3695 0.11565461044340813
623.668 0.11482461044340803
623.966 0.12815961044340812
624.2655 0.113159610443408
624.564 0.12065461044340803
624.8620000000001 0.11648961044340783
625.16 0.10982461044340791
625.46 0.09815961044340811
625.758 0.11065461044340802
626.056 0.114819610443408
626.355 0.10731961044340804
626.653 0.10898961044340821
626.952 0.1098196104434081
627.25 0.1098196104434081
627.5485 0.10398961044340811
627.846 0.10231961044340804
628.144 0.09148961044340803
628.443 0.09648961044340804
628.741 0.10648961044340782
629.0395 0.09065461044340789
629.3375000000001 0.10731961044340793
629.636 0.08815461044340796
629.935 0.11648961044340805
630.233 0.09232461044340784
630.531 0.10815461044340785
630.828 0.10898961044340799
631.1265000000001 0.08815461044340818
631.4245 0.09148961044340792
631.7235000000001 0.10648961044340804
632.0215000000001 0.09898961044340798
632.3195000000001 0.10231961044340804
632.6175000000001 0.09898961044340798
632.9155000000001 0.11148961044340816
633.2125 0.10232461044340807
633.5115000000001 0.09148961044340805
633.8095 0.1039896104434081
634.1075000000001 0.09565961044340815
634.4055000000001 0.09898961044340798
634.7035000000001 0.113159610443408
635.0015000000001 0.11065961044340805
635.2985 0.10982461044340791
635.5975 0.10815961044340788
635.8955000000001 0.08648961044340815
636.0435 0.08982461044340802
636.3415 0.10232461044340808
636.6395 0.09315461044340795
636.9365 0.10065461044340801
637.2345 0.10648961044340804
637.532 0.09065461044340789
637.8299999999999 0.10065461044340801
638.1275 0.10231961044340804
638.4265 0.07981961044340809
638.7235000000001 0.09815461044340806
639.0215000000001 0.09898961044340798
639.319 0.11315461044340797
639.617 0.09648961044340792
639.915 0.0998246104434079
640.2115 0.08648961044340793
640.5095 0.10148961044340815
640.807 0.10315961044340821
641.105 0.09065961044340803
641.404 0.095654610443408
641.7004999999999 0.09315961044340798
641.998 0.11065961044340805
642.296 0.11065961044340805
642.594 0.11648961044340805
642.89 0.09731961044340803
643.188 0.0956546104434079
643.4860000000001 0.09731961044340792
643.7835 0.10898961044340812
644.0799999999999 0.09732461044340796
644.378 0.11982461044340814
644.675 0.11315461044340797
644.973 0.10648961044340804
645.27 0.09732461044340796
645.567 0.11815461044340808
645.866 0.1231546104434082
646.164 0.11648961044340805
646.46 0.11065461044340802
646.758 0.11065961044340805
647.0550000000001 0.12732461044340798
647.3530000000001 0.11648961044340805
647.6495 0.11981961044340811
647.947 0.11898961044340822
648.2445 0.11815961044340811
648.5419999999999 0.11481961044340822
648.8385000000001 0.1281546104434081
648.864 0.11463922088681622
649.163 0.12963922088681634
649.463 0.112979220886816
649.762 0.13630922088681607
650.062 0.13297922088681602
650.361 0.14297922088681625
650.661 0.13963922088681613
650.96 0.14963922088681636
651.26 0.15297922088681604
651.559 0.15297922088681604
651.858 0.16297922088681627
652.158 0.17297922088681605
652.457 0.16463922088681604
652.757 0.18797922088681618
653.056 0.181309220886816
653.355 0.19297922088681607
653.655 0.18797922088681618
653.954 0.18463922088681606
654.253 0.23130922088681627
654.553 0.22130922088681604
654.852 0.22297922088681632
655.151 0.26297922088681636
655.451 0.257979220886816
655.75 0.2913092208868163
656.049 0.30463922088681616
656.349 0.306309220886816
656.646 0.3379792208868161
656.945 0.354639220886816
657.244 0.38463922088681624
657.544 0.40463922088681625
657.843 0.4063092208868161
658.142 0.4696392208868162
658.441 0.467979220886816
658.741 0.4729792208868163
659.04 0.5129792208868164
659.339 0.5029792208868161
659.638 0.5413092208868163
659.937 0.5446392208868159
660.236 0.5579792208868163
660.536 0.5746392208868162
660.835 0.5463092208868162
661.132 0.5829792208868162
661.431 0.5496392208868163
661.73 0.5813092208868164
662.029 0.5679792208868161
662.328 0.539639220886816
662.627 0.556309220886816
662.926 0.5213092208868163
663.225 0.49797922088681623
663.524 0.5046392208868163
663.823 0.499639220886816
664.12 0.43963922088681595
664.419 0.44297922088681607
664.719 0.37297922088681623
665.018 0.44797922088681597
665.316 0.37963922088681634
665.615 0.35130922088681593
665.914 0.3579792208868161
666.213 0.33463922088681597
666.512 0.3329792208868162
666.809 0.30963922088681606
667.108 0.3246392208868162
667.407 0.29463922088681593
667.706 0.26463922088681613
668.005 0.23963922088681622
668.304 0.257979220886816
668.603 0.23130922088681627
668.9 0.249639220886816
669.198 0.22297922088681632
669.497 0.2329792208868161
669.796 0.22630922088681593
670.095 0.19630922088681613
670.394 0.20630922088681636
670.691 0.17797922088681595
670.989 0.1763092208868161
671.288 0.18797922088681618
671.587 0.15963922088681615
671.886 0.17463922088681627
672.184 0.15297922088681604
672.481 0.16130922088681598
672.78 0.13963922088681613
673.079 0.1463092208868163
673.377 0.1563092208868161
673.676 0.13797922088681636
673.973 0.124639220886816
674.271 0.1463092208868163
674.57 0.10797922088681611
674.869 0.12297922088681623
675.167 0.13463922088681624
675.464 0.13297922088681602
675.763 0.1263092208868163
676.061 0.12130922088681595
676.36 0.124639220886816
676.659 0.112979220886816
676.955 0.10463922088681599
677.254 0.08297922088681621
677.552 0.10963922088681632
677.851 0.08963922088681608
678.148 0.09130922088681614
678.446 0.09797922088681632
678.745 0.09797922088681632
679.043 0.10130922088681593
679.34 0.112979220886816
679.638 0.09630922088681604
679.937 0.0996392208868161
680.235 0.08797922088681609
680.532 0.10630922088681627
680.83 0.10463922088681599
681.129 0.08963922088681608
681.427 0.08130922088681615
681.723 0.09297922088681598
682.022 0.09797922088681632
682.32 0.0846392208868162
682.619 0.09797922088681632
682.915 0.09630922088681604
683.214 0.09797922088681632
683.512 0.08963922088681608
683.808 0.0846392208868162
684.107 0.09297922088681598
684.405 0.08963922088681608
684.703 0.0746392208868162
685.0 0.06797922088681609
685.298 0.10963922088681632
685.596 0.0746392208868162
685.893 0.08797922088681609
686.191 0.0946392208868162
686.489 0.07963922088681609
686.788 0.10130922088681593
687.084 0.09130922088681614
687.382 0.08630922088681627
687.68 0.06963922088681608
687.977 0.0779792208868161
688.275 0.08297922088681621
688.573 0.09630922088681604
688.869 0.09797922088681632
689.167 0.06297922088681619
689.466 0.0729792208868162
689.762 0.07630922088681626
690.06 0.0846392208868162
690.358 0.06963922088681608
690.654 0.06630922088681625
690.952 0.08130922088681615
691.25 0.06963922088681608
691.547 0.0846392208868162
691.845 0.08130922088681615
692.143 0.07630922088681626
692.439 0.06463922088681619
692.737 0.06797922088681609
693.033 0.0746392208868162
693.331 0.0729792208868162
693.629 0.05797922088681608
693.925 0.0779792208868161
694.223 0.0746392208868162
694.521 0.06297922088681619
694.817 0.09297922088681598
695.115 0.07630922088681626
695.413 0.0746392208868162
695.709 0.07630922088681626
696.007 0.0729792208868162
696.303 0.06297922088681619
696.601 0.0779792208868161
696.899 0.06963922088681608
697.195 0.07130922088681614
697.493 0.08797922088681609
697.789 0.0729792208868162
698.087 0.0746392208868162
698.385 0.05297922088681618
698.681 0.07963922088681609
698.978 0.0729792208868162
699.274 0.05963922088681607
699.572 0.0746392208868162
699.868 0.06297922088681619
700.166 0.07630922088681626
700.464 0.06130922088681613
700.759 0.08297922088681621
701.057 0.0746392208868162
701.353 0.06297922088681619
701.651 0.06463922088681619
701.947 0.07963922088681609
702.244 0.0846392208868162
702.542 0.07963922088681609
702.838 0.07963922088681609
703.136 0.04797922088681607
703.431 0.07130922088681614
703.729 0.0846392208868162
704.025 0.06963922088681608
704.323 0.07630922088681626
704.618 0.0846392208868162
704.916 0.06463922088681619
705.212 0.07630922088681626
705.509 0.08297922088681621
705.805 0.09130922088681614
706.103 0.06297922088681619
706.4 0.06297922088681619
706.696 0.05963922088681607
706.993 0.06797922088681609
707.289 0.05630922088681624
707.587 0.0746392208868162
707.882 0.04463922088681617
708.18 0.0729792208868162
708.475 0.0846392208868162
708.773 0.0729792208868162
709.068 0.07963922088681609
709.366 0.06463922088681619
709.661 0.06463922088681619
709.959 0.05963922088681607
710.255 0.05297922088681618
710.552 0.06797922088681609
710.847 0.0846392208868162
711.145 0.06963922088681608
711.44 0.0779792208868161
711.736 0.06963922088681608
712.033 0.07130922088681614
712.329 0.0779792208868161
712.626 0.06630922088681625
712.922 0.0746392208868162
713.219 0.06963922088681608
713.514 0.0729792208868162
713.812 0.07130922088681614
714.107 0.05463922088681618
714.405 0.06797922088681609
714.7 0.06797922088681609
714.997 0.06130922088681613
715.293 0.06797922088681609
715.588 0.06130922088681613
715.885 0.04963922088681606
716.181 0.05797922088681608
716.478 0.07130922088681614
716.773 0.04963922088681606
717.07 0.05963922088681607
717.366 0.0779792208868161
717.661 0.05130922088681612
717.958 0.05630922088681624
718.254 0.05797922088681608
718.551 0.041309220886816114
718.846 0.07130922088681614
719.141 0.0729792208868162
719.438 0.05630922088681624
719.734 0.042979220886816175
720.031 0.042979220886816175
720.326 0.06463922088681619
720.621 0.05130922088681612
720.918 0.06297922088681619
721.213 0.06463922088681619
721.511 0.0846392208868162
721.806 0.0746392208868162
722.101 0.05130922088681612
722.398 0.0729792208868162
722.693 0.07630922088681626
722.99 0.06463922088681619
723.285 0.04630922088681623
723.58 0.06130922088681613
723.877 0.06463922088681619
724.172 0.06797922088681609
724.467 0.05463922088681618
724.764 0.05297922088681618
725.06 0.06630922088681625
725.354 0.04463922088681617
725.651 0.06797922088681609
725.946 0.08130922088681615
726.243 0.06963922088681608
726.538 0.04630922088681623
726.833 0.05797922088681608
727.13 0.05630922088681624
727.425 0.05963922088681607
727.72 0.05297922088681618
728.017 0.0746392208868162
728.312 0.042979220886816175
728.607 0.0729792208868162
728.904 0.0779792208868161
729.199 0.06797922088681609
729.494 0.04963922088681606
729.789 0.05797922088681608
730.085 0.05463922088681618
730.38 0.05297922088681618
730.675 0.06463922088681619
730.972 0.05463922088681618
731.267 0.05630922088681624
731.562 0.05630922088681624
731.858 0.05797922088681608
732.153 0.06797922088681609
732.448 0.042979220886816175
732.743 0.06130922088681613
733.039 0.04963922088681606
733.334 0.05963922088681607
733.629 0.05463922088681618
733.926 0.05130922088681612
734.22 0.0729792208868162
734.515 0.05297922088681618
734.81 0.07130922088681614
735.107 0.042979220886816175
735.401 0.06963922088681608
735.696 0.04463922088681617
735.991 0.04463922088681617
736.287 0.06130922088681613
736.582 0.06130922088681613
736.876 0.0729792208868162
737.171 0.03797922088681606
737.468 0.03463922088681616
737.762 0.05963922088681607
738.057 0.041309220886816114
738.352 0.05963922088681607
738.648 0.04463922088681617
738.943 0.05797922088681608
739.237 0.06630922088681625
739.532 0.05463922088681618
739.828 0.06963922088681608
740.123 0.04963922088681606
740.417 0.06297922088681619
740.712 0.06797922088681609
741.006 0.06963922088681608
741.303 0.0746392208868162
741.597 0.06297922088681619
741.892 0.05797922088681608
742.186 0.05130922088681612
742.483 0.05130922088681612
742.777 0.05130922088681612
743.072 0.06797922088681609
743.366 0.05297922088681618
743.66 0.06630922088681625
743.955 0.05297922088681618
744.251 0.041309220886816114
744.546 0.05130922088681612
744.84 0.04963922088681606
745.134 0.06630922088681625
745.429 0.041309220886816114
745.725 0.05797922088681608
746.019 0.03463922088681616
746.314 0.04630922088681623
746.608 0.05630922088681624
746.902 0.06463922088681619
747.197 0.05463922088681618
747.493 0.04463922088681617
747.787 0.0729792208868162
748.082 0.05963922088681607
748.376 0.05297922088681618
748.67 0.06130922088681613
748.964 0.05463922088681618
749.259 0.04463922088681617
749.555 0.06463922088681619
749.849 0.06130922088681613
750.143 0.06963922088681608
750.437 0.06297922088681619
750.732 0.06130922088681613
751.026 0.05797922088681608
751.32 0.06963922088681608
751.614 0.03797922088681606
751.91 0.05963922088681607
752.204 0.05797922088681608
752.498 0.0746392208868162
752.793 0.03630922088681622
753.087 0.04630922088681623
753.381 0.05630922088681624
753.675 0.042979220886816175
753.969 0.03630922088681622
754.263 0.05630922088681624
754.559 0.039639220886816054
754.853 0.05130922088681612
755.147 0.04797922088681607
755.441 0.06130922088681613
755.735 0.06463922088681619
756.029 0.07130922088681614
756.323 0.04463922088681617
756.617 0.05297922088681618
756.911 0.07130922088681614
757.205 0.05297922088681618
757.499 0.05130922088681612
757.793 0.04797922088681607
758.087 0.04797922088681607
758.381 0.07130922088681614
758.677 0.06963922088681608
758.971 0.05130922088681612
759.265 0.06463922088681619
759.559 0.05130922088681612
759.853 0.04630922088681623
760.146 0.06130922088681613
760.44 0.04463922088681617
760.734 0.041309220886816114
761.028 0.05797922088681608
761.322 0.05797922088681608
761.616 0.04797922088681607
761.909 0.04463922088681617
762.203 0.05963922088681607
762.497 0.04963922088681606
762.791 0.03797922088681606
763.085 0.05963922088681607
763.378 0.06297922088681619
763.672 0.05297922088681618
763.966 0.0729792208868162
764.26 0.05130922088681612
764.553 0.05463922088681618
764.847 0.05963922088681607
765.141 0.04797922088681607
765.435 0.08630922088681627
765.728 0.04797922088681607
766.022 0.06297922088681619
766.316 0.06297922088681619
766.609 0.06130922088681613
766.903 0.06297922088681619
767.197 0.06963922088681608
767.49 0.06463922088681619
767.784 0.06963922088681608
768.078 0.05797922088681608
768.371 0.0746392208868162
768.665 0.06130922088681613
768.958 0.05630922088681624
769.252 0.06463922088681619
769.546 0.042979220886816175
769.839 0.05797922088681608
770.133 0.07130922088681614
770.426 0.05130922088681612
770.72 0.04630922088681623
771.013 0.05130922088681612
771.305 0.05463922088681618
771.598 0.05797922088681608
771.892 0.05630922088681624
772.185 0.041309220886816114
772.479 0.06463922088681619
772.772 0.05130922088681612
773.066 0.06797922088681609
773.359 0.0729792208868162
773.653 0.06130922088681613
773.946 0.06963922088681608
774.239 0.04797922088681607
774.533 0.05463922088681618
774.826 0.06630922088681625
775.12 0.06963922088681608
775.411 0.05463922088681618
775.704 0.0746392208868162
775.998 0.08130922088681615
776.291 0.05630922088681624
776.584 0.05463922088681618
776.878 0.06130922088681613
777.171 0.04963922088681606
777.464 0.04963922088681606
777.758 0.07630922088681626
778.049 0.06130922088681613
778.342 0.06463922088681619
778.636 0.06463922088681619
778.929 0.06130922088681613
779.222 0.06630922088681625
779.515 0.0746392208868162
779.809 0.06130922088681613
780.102 0.05297922088681618
780.393 0.07130922088681614
780.686 0.06797922088681609
780.979 0.06463922088681619
781.273 0.0729792208868162
781.566 0.06630922088681625
781.859 0.07130922088681614
782.152 0.05297922088681618
782.443 0.06463922088681619
782.737 0.06130922088681613
783.03 0.05463922088681618
783.323 0.07130922088681614
783.616 0.04797922088681607
783.909 0.06463922088681619
784.2 0.04630922088681623
784.493 0.05463922088681618
784.786 0.07630922088681626
785.079 0.06963922088681608
785.372 0.05630922088681624
785.664 0.05963922088681607
785.957 0.06463922088681619
786.25 0.03797922088681606
786.543 0.05630922088681624
786.836 0.06797922088681609
787.127 0.0746392208868162
787.42 0.06630922088681625
787.713 0.05963922088681607
788.006 0.05963922088681607
788.299 0.05463922088681618
788.59 0.041309220886816114
788.882 0.06630922088681625
789.175 0.07963922088681609
789.468 0.04463922088681617
789.761 0.06463922088681619
790.052 0.06297922088681619
790.345 0.06297922088681619
790.638 0.06797922088681609
790.931 0.05463922088681618
791.222 0.0729792208868162
791.515 0.06797922088681609
791.807 0.06963922088681608
792.1 0.05630922088681624
792.391 0.06630922088681625
792.684 0.06297922088681619
792.977 0.06463922088681619
793.27 0.0729792208868162
793.56 0.07630922088681626
793.853 0.0746392208868162
794.146 0.08797922088681609
794.439 0.07130922088681614
794.729 0.06297922088681619
795.022 0.04797922088681607
795.315 0.06130922088681613
795.606 0.0779792208868161
795.898 0.06297922088681619
796.191 0.08130922088681615
796.484 0.0729792208868162
796.775 0.06297922088681619
797.067 0.0746392208868162
797.36 0.06963922088681608
797.651 0.06797922088681609
797.943 0.06963922088681608
798.236 0.0729792208868162
798.528 0.05630922088681624
798.819 0.07130922088681614
799.112 0.06963922088681608
799.404 0.06297922088681619
799.695 0.07630922088681626
799.987 0.06797922088681609
800.28 0.06630922088681625
800.571 0.0746392208868162
800.863 0.05463922088681618
801.156 0.0779792208868161
801.446 0.05963922088681607
801.739 0.06630922088681625
802.031 0.07130922088681614
802.322 0.05797922088681608
802.614 0.08963922088681608
802.907 0.05463922088681618
803.197 0.0846392208868162
803.49 0.0846392208868162
803.782 0.06630922088681625
804.073 0.06630922088681625
804.365 0.07130922088681614
804.658 0.0779792208868161
804.948 0.08130922088681615
805.241 0.0846392208868162
805.531 0.07963922088681609
805.823 0.05963922088681607
806.116 0.0846392208868162
806.406 0.05963922088681607
806.698 0.06463922088681619
806.991 0.06797922088681609
807.281 0.08963922088681608
807.574 0.07130922088681614
807.864 0.0846392208868162
808.156 0.09297922088681598
808.449 0.0846392208868162
808.739 0.06963922088681608
809.031 0.09297922088681598
809.321 0.0779792208868161
809.614 0.07130922088681614
809.906 0.0729792208868162
810.196 0.09297922088681598
810.489 0.0946392208868162
810.779 0.05630922088681624
811.071 0.08630922088681627
811.363 0.08797922088681609
811.653 0.09130922088681614
811.946 0.0746392208868162
812.236 0.08130922088681615
812.528 0.08797922088681609
812.818 0.06297922088681619
813.11 0.08130922088681615
813.401 0.06797922088681609
813.693 0.07630922088681626
813.985 0.07130922088681614
814.275 0.07630922088681626
814.567 0.05630922088681624
814.857 0.09297922088681598
815.149 0.10297922088681621
815.439 0.08797922088681609
815.731 0.0946392208868162
816.022 0.08297922088681621
816.314 0.09130922088681614
816.604 0.08963922088681608
816.896 0.0946392208868162
817.188 0.07130922088681614
817.478 0.0846392208868162
817.77 0.0746392208868162
818.06 0.08963922088681608
818.352 0.0946392208868162
818.642 0.09130922088681614
818.934 0.0846392208868162
819.224 0.05463922088681618
819.516 0.09130922088681614
819.806 0.07630922088681626
820.098 0.08130922088681615
820.388 0.08630922088681627
820.679 0.09130922088681614
820.969 0.0746392208868162
821.261 0.0779792208868161
821.551 0.07963922088681609
821.843 0.08297922088681621
822.133 0.0946392208868162
822.423 0.112979220886816
822.715 0.09797922088681632
823.005 0.08130922088681615
823.296 0.07963922088681609
823.586 0.08797922088681609
823.878 0.09297922088681598
824.168 0.09297922088681598
824.46 0.06963922088681608
824.749 0.0746392208868162
825.041 0.08297922088681621
825.331 0.07630922088681626
825.623 0.08963922088681608
825.912 0.10630922088681627
826.202 0.08963922088681608
826.494 0.09797922088681632
826.784 0.1263092208868163
827.075 0.06630922088681625
827.365 0.08797922088681609
827.657 0.07963922088681609
827.947 0.09630922088681604
828.236 0.10130922088681593
828.528 0.0779792208868161
828.818 0.07963922088681609
829.109 0.07963922088681609
829.399 0.10297922088681621
829.69 0.0779792208868161
829.98 0.0946392208868162
830.27 0.08297922088681621
830.561 0.07963922088681609
830.851 0.0846392208868162
831.143 0.05963922088681607
831.432 0.07630922088681626
831.722 0.0946392208868162
832.013 0.07963922088681609
832.303 0.07630922088681626
832.592 0.08297922088681621
832.884 0.08797922088681609
833.173 0.0846392208868162
833.465 0.07130922088681614
833.754 0.0846392208868162
834.044 0.0846392208868162
834.335 0.10130922088681593
834.625 0.08963922088681608
834.914 0.10130922088681593
835.206 0.09297922088681598
835.495 0.10297922088681621
835.785 0.08963922088681608
836.076 0.08630922088681627
836.366 0.09797922088681632
836.657 0.08130922088681615
836.946 0.0946392208868162
837.236 0.0946392208868162
837.527 0.0846392208868162
837.817 0.0946392208868162
838.106 0.10130922088681593
838.397 0.09797922088681632
838.687 0.08797922088681609
838.976 0.08963922088681608
839.265 0.10463922088681599
839.557 0.08797922088681609
839.846 0.0846392208868162
840.135 0.10297922088681621
840.426 0.11130922088681616
840.716 0.08963922088681608
841.005 0.11630922088681606
841.296 0.09797922088681632
841.586 0.08297922088681621
841.875 0.09630922088681604
842.166 0.07630922088681626
842.455 0.08297922088681621
842.744 0.0996392208868161
843.034 0.09797922088681632
843.325 0.0779792208868161
843.614 0.09797922088681632
843.903 0.12130922088681595
844.194 0.10630922088681627
844.484 0.09297922088681598
844.773 0.10297922088681621
845.062 0.0779792208868161
845.353 0.0946392208868162
845.642 0.09297922088681598
845.931 0.11463922088681622
846.22 0.10963922088681632
846.511 0.0996392208868161
846.801 0.09630922088681604
847.09 0.09797922088681632
847.379 0.09630922088681604
847.67 0.0996392208868161
847.959 0.0996392208868161
848.248 0.112979220886816
848.537 0.10797922088681611
848.828 0.10630922088681627
849.117 0.0996392208868161
849.406 0.09630922088681604
849.695 0.11630922088681606
849.984 0.0946392208868162
850.275 0.10297922088681621
850.564 0.08630922088681627
850.853 0.10797922088681611
851.142 0.10630922088681627
851.431 0.0996392208868161
851.722 0.11463922088681622
852.011 0.06963922088681608
852.299 0.10797922088681611
852.588 0.124639220886816
852.877 0.11130922088681616
853.168 0.0946392208868162
853.457 0.10797922088681611
853.746 0.0729792208868162
854.035 0.08630922088681627
854.324 0.09130922088681614
854.614 0.11963922088681611
854.903 0.10963922088681632
855.192 0.09797922088681632
855.481 0.12130922088681595
855.77 0.09297922088681598
856.058 0.10630922088681627
856.349 0.10630922088681627
856.638 0.09630922088681604
856.927 0.10963922088681632
857.216 0.10963922088681632
857.504 0.112979220886816
857.793 0.11463922088681622
858.082 0.10463922088681599
858.372 0.0946392208868162
858.661 0.11130922088681616
858.95 0.12297922088681623
859.239 0.11130922088681616
859.527 0.112979220886816
859.816 0.09797922088681632
860.105 0.12797922088681613
860.395 0.10297922088681621
860.684 0.12130922088681595
860.973 0.10463922088681599
861.261 0.09630922088681604
861.55 0.12963922088681634
861.838 0.10963922088681632
862.127 0.10463922088681599
862.416 0.1263092208868163
862.704 0.11130922088681616
862.993 0.0996392208868161
863.283 0.10797922088681611
863.572 0.10630922088681627
863.86 0.11630922088681606
864.149 0.112979220886816
864.437 0.1263092208868163
864.726 0.10630922088681627
865.014 0.09630922088681604
865.303 0.11630922088681606
865.591 0.13130922088681618
865.88 0.12797922088681613
866.168 0.13130922088681618
866.457 0.10297922088681621
866.747 0.12297922088681623
867.036 0.13463922088681624
867.324 0.112979220886816
867.613 0.09630922088681604
867.901 0.10797922088681611
868.189 0.10130922088681593
868.478 0.11797922088681634
868.766 0.13630922088681607
869.055 0.10963922088681632
869.343 0.13297922088681602
869.631 0.124639220886816
869.92 0.12297922088681623
870.208 0.12797922088681613
870.496 0.10963922088681632
870.785 0.11963922088681611
871.073 0.11630922088681606
871.361 0.13630922088681607
871.65 0.1263092208868163
871.938 0.11797922088681634
872.226 0.11963922088681611
872.514 0.10463922088681599
872.803 0.13130922088681618
873.091 0.124639220886816
873.379 0.09297922088681598
873.667 0.10630922088681627
873.956 0.10630922088681627
874.244 0.11963922088681611
874.532 0.11130922088681616
874.82 0.11630922088681606
875.108 0.13797922088681636
875.397 0.13130922088681618
875.685 0.12963922088681634
875.973 0.10630922088681627
876.261 0.10463922088681599
876.549 0.11797922088681634
876.837 0.12297922088681623
877.125 0.14463922088681602
877.414 0.124639220886816
877.702 0.11963922088681611
877.99 0.1263092208868163
878.278 0.14963922088681636
878.566 0.1263092208868163
878.854 0.112979220886816
879.142 0.13630922088681607
879.43 0.13463922088681624
879.718 0.12963922088681634
880.004 0.13630922088681607
880.292 0.12963922088681634
880.58 0.13463922088681624
880.868 0.1263092208868163
881.156 0.12297922088681623
881.444 0.1263092208868163
881.732 0.14297922088681625
882.02 0.1263092208868163
882.308 0.12797922088681613
882.596 0.1513092208868162
882.884 0.14130922088681597
883.172 0.11797922088681634
883.458 0.12963922088681634
883.746 0.15297922088681604
884.034 0.13963922088681613
884.322 0.12963922088681634
884.609 0.13463922088681624
884.897 0.14130922088681597
885.185 0.1563092208868161
885.473 0.16297922088681627
885.761 0.12963922088681634
886.049 0.16130922088681598
886.335 0.13463922088681624
886.622 0.1263092208868163
886.91 0.1263092208868163
887.198 0.14463922088681602
887.486 0.1463092208868163
887.774 0.14297922088681625
888.061 0.14463922088681602
888.347 0.15463922088681625
888.635 0.13630922088681607
888.923 0.13963922088681613
889.21 0.16130922088681598
889.498 0.1563092208868161
889.786 0.16963922088681593
890.073 0.16797922088681616
890.359 0.15797922088681593
890.647 0.15797922088681593
890.935 0.14797922088681614
891.222 0.15297922088681604
891.51 0.14463922088681602
891.798 0.16963922088681593
892.083 0.15463922088681625
892.371 0.15797922088681593
892.659 0.14797922088681614
892.946 0.15797922088681593
893.234 0.15297922088681604
893.519 0.15963922088681615
893.807 0.16130922088681598
894.094 0.13130922088681618
894.382 0.17130922088681622
894.67 0.13130922088681618
894.955 0.16463922088681604
895.243 0.16463922088681604
895.53 0.16297922088681627
895.818 0.1563092208868161
896.105 0.13797922088681636
896.391 0.13630922088681607
896.678 0.16463922088681604
896.966 0.181309220886816
897.253 0.14130922088681597
897.539 0.16630922088681632
897.826 0.15797922088681593
898.114 0.1513092208868162
898.401 0.16130922088681598
898.689 0.13630922088681607
898.974 0.17297922088681605
899.261 0.181309220886816
899.549 0.13963922088681613
899.836 0.18797922088681618
900.122 0.181309220886816
900.409 0.1513092208868162
900.696 0.16463922088681604
900.982 0.16463922088681604
901.269 0.1563092208868161
901.556 0.16963922088681593
901.844 0.20630922088681636
902.129 0.1563092208868161
902.417 0.15297922088681604
902.704 0.14297922088681625
902.991 0.16297922088681627
903.276 0.16297922088681627
903.564 0.15963922088681615
903.851 0.17463922088681627
904.136 0.18463922088681606
904.423 0.18797922088681618
904.711 0.15963922088681615
904.998 0.17463922088681627
905.283 0.18297922088681629
905.57 0.16463922088681604
905.858 0.18963922088681595
906.143 0.16297922088681627
906.43 0.16463922088681604
906.717 0.16963922088681593
907.002 0.2029792208868163
907.29 0.15963922088681615
907.577 0.16963922088681593
907.862 0.16630922088681632
908.149 0.16797922088681616
908.436 0.16630922088681632
908.721 0.19630922088681613
909.008 0.16963922088681593
909.295 0.17963922088681616
909.581 0.19297922088681607
909.868 0.16630922088681632
910.155 0.18297922088681629
910.44 0.20130922088681602
910.727 0.19297922088681607
911.014 0.181309220886816
911.299 0.18963922088681595
911.586 0.17130922088681622
911.871 0.17297922088681605
912.158 0.181309220886816
912.445 0.16963922088681593
912.73 0.18630922088681634
913.017 0.16797922088681616
913.304 0.15797922088681593
913.589 0.18963922088681595
913.876 0.19130922088681623
914.161 0.20130922088681602
914.448 0.18630922088681634
914.735 0.1563092208868161
915.02 0.181309220886816
915.307 0.16130922088681598
915.591 0.17130922088681622
915.878 0.16630922088681632
916.165 0.17297922088681605
916.45 0.17463922088681627
916.737 0.17297922088681605
917.022 0.16130922088681598
917.309 0.17463922088681627
917.595 0.16297922088681627
917.88 0.17963922088681616
918.167 0.17797922088681595
918.452 0.17797922088681595
918.739 0.18463922088681606
919.024 0.15963922088681615
919.31 0.16463922088681604
919.597 0.16963922088681593
919.882 0.17797922088681595
920.169 0.16130922088681598
920.453 0.19130922088681623
920.74 0.19130922088681623
921.025 0.17963922088681616
921.312 0.17797922088681595
921.596 0.1563092208868161
921.883 0.17130922088681622
922.168 0.16963922088681593
922.454 0.16463922088681604
922.741 0.18630922088681634
923.026 0.17963922088681616
923.312 0.18463922088681606
923.597 0.17463922088681627
923.884 0.18463922088681606
924.168 0.17797922088681595
924.455 0.15463922088681625
924.74 0.16463922088681604
925.026 0.1513092208868162
925.311 0.1563092208868161
925.597 0.1763092208868161
925.882 0.17130922088681622
926.169 0.16963922088681593
926.453 0.1946392208868163
926.74 0.17297922088681605
927.024 0.1763092208868161
927.311 0.16797922088681616
927.595 0.15797922088681593
927.882 0.1763092208868161
928.166 0.15297922088681604
928.453 0.16963922088681593
928.737 0.16463922088681604
929.022 0.17297922088681605
929.308 0.1763092208868161
929.593 0.15297922088681604
929.879 0.14797922088681614
930.164 0.17963922088681616
930.45 0.15963922088681615
930.734 0.15297922088681604
931.021 0.15963922088681615
931.305 0.15297922088681604
931.592 0.15797922088681593
931.876 0.13130922088681618
932.16 0.17297922088681605
932.447 0.15797922088681593
932.731 0.15963922088681615
933.018 0.15963922088681615
933.302 0.1563092208868161
933.588 0.12963922088681634
933.873 0.16797922088681616
934.157 0.15963922088681615
934.443 0.1563092208868161
934.727 0.15797922088681593
935.014 0.13463922088681624
935.298 0.16797922088681616
935.582 0.13463922088681624
935.869 0.16463922088681604
936.153 0.15963922088681615
936.439 0.12797922088681613
936.723 0.13963922088681613
937.008 0.13963922088681613
937.294 0.13463922088681624
937.578 0.16297922088681627
937.864 0.14963922088681636
938.148 0.12130922088681595
938.433 0.13463922088681624
938.719 0.14797922088681614
939.003 0.14963922088681636
939.287 0.13630922088681607
939.573 0.13963922088681613
939.857 0.12963922088681634
940.143 0.13797922088681636
940.428 0.13297922088681602
940.712 0.13797922088681636
940.998 0.13630922088681607
941.282 0.12963922088681634
941.566 0.14297922088681625
941.852 0.12130922088681595
942.136 0.15463922088681625
942.42 0.13130922088681618
942.706 0.12297922088681623
942.99 0.13130922088681618
943.274 0.13463922088681624
943.56 0.112979220886816
943.844 0.11630922088681606
944.128 0.09297922088681598
944.414 0.10797922088681611
944.698 0.13130922088681618
944.982 0.13463922088681624
945.268 0.08797922088681609
945.552 0.124639220886816
945.836 0.11630922088681606
946.12 0.11463922088681622
946.406 0.12130922088681595
946.69 0.10463922088681599
946.974 0.12797922088681613
947.26 0.11130922088681616
947.544 0.10463922088681599
947.828 0.11130922088681616
948.114 0.13463922088681624
948.397 0.12130922088681595
948.681 0.10963922088681632
948.965 0.10797922088681611
949.251 0.0996392208868161
949.535 0.11797922088681634
949.819 0.12963922088681634
950.103 0.12130922088681595
950.388 0.11797922088681634
950.672 0.112979220886816
950.956 0.11797922088681634
951.24 0.11130922088681616
951.525 0.112979220886816
951.809 0.13463922088681624
952.093 0.10797922088681611
952.377 0.10797922088681611
952.662 0.11463922088681622
952.946 0.09630922088681604
953.23 0.13297922088681602
953.514 0.08297922088681621
953.799 0.11130922088681616
954.083 0.10297922088681621
954.367 0.12797922088681613
954.65 0.14297922088681625
954.934 0.0946392208868162
955.22 0.11130922088681616
955.503 0.10463922088681599
955.787 0.11130922088681616
956.071 0.0946392208868162
956.356 0.12130922088681595
956.64 0.13297922088681602
956.924 0.14797922088681614
957.207 0.12797922088681613
957.491 0.124639220886816
957.774 0.11797922088681634
958.06 0.11963922088681611
958.343 0.11797922088681634
958.627 0.112979220886816
958.911 0.13297922088681602
959.194 0.10963922088681632
959.48 0.112979220886816
959.763 0.13463922088681624
960.047 0.10797922088681611
960.33 0.10630922088681627
960.614 0.13297922088681602
960.897 0.11463922088681622
961.182 0.09630922088681604
961.466 0.11797922088681634
961.749 0.10797922088681611
962.033 0.124639220886816
962.316 0.11463922088681622
962.6 0.11797922088681634
962.883 0.112979220886816
963.169 0.10630922088681627
963.452 0.0996392208868161
963.735 0.09797922088681632
964.019 0.124639220886816
964.302 0.10297922088681621
964.586 0.10797922088681611
964.869 0.10297922088681621
965.152 0.10130922088681593
965.438 0.11463922088681622
965.721 0.10630922088681627
966.004 0.08130922088681615
966.288 0.08797922088681609
966.571 0.10130922088681593
966.854 0.08630922088681627
967.137 0.09297922088681598
967.421 0.09797922088681632
967.704 0.1263092208868163
967.987 0.0946392208868162
968.272 0.0846392208868162
968.556 0.08630922088681627
968.839 0.0996392208868161
969.122 0.11130922088681616
969.405 0.09630922088681604
969.689 0.10130922088681593
969.972 0.09297922088681598
970.255 0.08963922088681608
970.538 0.10130922088681593
970.821 0.0996392208868161
971.105 0.11963922088681611
971.388 0.0996392208868161
971.671 0.0746392208868162
971.954 0.0846392208868162
972.237 0.07963922088681609
972.52 0.10130922088681593
972.805 0.09297922088681598
973.088 0.10463922088681599
973.371 0.10797922088681611
973.655 0.09797922088681632
973.938 0.09797922088681632
974.221 0.08130922088681615
974.504 0.09797922088681632
974.787 0.0996392208868161
975.07 0.10797922088681611
975.353 0.09797922088681632
975.636 0.0946392208868162
975.919 0.0846392208868162
976.202 0.09130922088681614
976.485 0.10463922088681599
976.768 0.09130922088681614
977.051 0.09630922088681604
977.334 0.09630922088681604
977.617 0.10463922088681599
977.9 0.11130922088681616
978.183 0.0996392208868161
978.466 0.112979220886816
978.749 0.0996392208868161
979.031 0.124639220886816
979.314 0.09797922088681632
979.597 0.0946392208868162
979.88 0.11130922088681616
980.163 0.08797922088681609
980.446 0.10630922088681627
980.729 0.09797922088681632
981.01 0.10297922088681621
981.293 0.09797922088681632
981.575 0.10630922088681627
981.858 0.10463922088681599
982.141 0.11630922088681606
982.424 0.09797922088681632
982.707 0.112979220886816
982.989 0.11130922088681616
983.272 0.09297922088681598
983.555 0.09630922088681604
983.838 0.11130922088681616
984.12 0.11630922088681606
984.403 0.10797922088681611
984.686 0.10797922088681611
984.969 0.10463922088681599
985.251 0.10963922088681632
985.532 0.10463922088681599
985.815 0.11797922088681634
986.098 0.12963922088681634
986.38 0.13630922088681607
986.663 0.11963922088681611
986.946 0.12130922088681595
987.228 0.12130922088681595
987.511 0.10130922088681593
987.794 0.10463922088681599
988.076 0.11963922088681611
988.357 0.11797922088681634
988.639 0.11130922088681616
988.922 0.10630922088681627
989.205 0.13963922088681613
989.487 0.12130922088681595
989.77 0.10297922088681621
990.052 0.12130922088681595
990.335 0.10297922088681621
990.616 0.10797922088681611
990.898 0.08797922088681609
991.181 0.11797922088681634
991.463 0.11630922088681606
991.746 0.13463922088681624
992.028 0.10630922088681627
992.311 0.11797922088681634
992.591 0.12130922088681595
992.874 0.112979220886816
993.156 0.12963922088681634
993.439 0.10130922088681593
993.721 0.13297922088681602
994.003 0.14963922088681636
994.284 0.13130922088681618
994.566 0.12297922088681623
994.849 0.09630922088681604
995.131 0.12963922088681634
995.414 0.11463922088681622
995.696 0.12297922088681623
995.976 0.14130922088681597
996.259 0.11797922088681634
996.541 0.13130922088681618
996.823 0.12297922088681623
997.106 0.124639220886816
997.386 0.13463922088681624
997.669 0.11630922088681606
997.951 0.13963922088681613
998.233 0.12797922088681613
998.516 0.12297922088681623
998.796 0.10297922088681621
999.078 0.1263092208868163
999.36 0.12797922088681613
999.643 0.11630922088681606
999.923 0.124639220886816
1000.21 0.14130922088681597
1000.49 0.124639220886816
1000.77 0.12797922088681613
1001.05 0.124639220886816
1001.33 0.11797922088681634
1001.61 0.1263092208868163
1001.9 0.13797922088681636
1002.18 0.12130922088681595
1002.46 0.13297922088681602
1002.74 0.13630922088681607
1003.02 0.10963922088681632
1003.3 0.14130922088681597
1003.59 0.12797922088681613
1003.87 0.13130922088681618
1004.15 0.12963922088681634
1004.43 0.15297922088681604
1004.71 0.14130922088681597
1004.99 0.15463922088681625
1005.28 0.124639220886816
1005.56 0.13463922088681624
1005.84 0.1463092208868163
1006.12 0.16963922088681593
1006.4 0.13963922088681613
1006.68 0.14130922088681597
1006.96 0.14463922088681602
1007.24 0.12797922088681613
1007.53 0.12797922088681613
1007.81 0.15297922088681604
1008.09 0.13797922088681636
1008.37 0.1563092208868161
1008.65 0.13797922088681636
1008.93 0.13963922088681613
1009.21 0.14797922088681614
1009.5 0.1563092208868161
1009.78 0.12963922088681634
1010.06 0.15463922088681625
1010.34 0.14297922088681625
1010.62 0.11463922088681622
1010.9 0.13630922088681607
1011.18 0.1513092208868162
1011.47 0.13463922088681624
1011.75 0.14963922088681636
1012.03 0.15297922088681604
1012.31 0.15963922088681615
1012.59 0.15963922088681615
1012.87 0.1463092208868163
1013.15 0.1513092208868162
1013.43 0.16463922088681604
1013.72 0.15463922088681625
1014.0 0.1563092208868161
1014.28 0.13797922088681636
1014.56 0.15797922088681593
1014.84 0.1563092208868161
1015.12 0.13463922088681624
1015.4 0.14797922088681614
1015.68 0.13630922088681607
1015.96 0.16630922088681632
1016.24 0.12963922088681634
1016.53 0.1513092208868162
1016.81 0.14963922088681636
1017.09 0.14297922088681625
1017.37 0.13630922088681607
1017.65 0.15463922088681625
1017.93 0.16797922088681616
1018.21 0.1563092208868161
1018.49 0.1513092208868162
1018.77 0.1563092208868161
1019.05 0.1563092208868161
1019.33 0.1563092208868161
1019.61 0.1563092208868161
1019.9 0.1563092208868161
1020.18 0.14797922088681614
1020.46 0.16797922088681616
1020.74 0.15463922088681625
1021.02 0.15797922088681593
1021.3 0.13130922088681618
1021.58 0.17130922088681622
1021.86 0.17463922088681627
1022.14 0.15963922088681615
1022.42 0.17297922088681605
1022.7 0.14797922088681614
1022.98 0.17797922088681595
1023.26 0.16963922088681593
1023.54 0.16463922088681604
1023.83 0.1463092208868163
1024.11 0.15463922088681625
1024.39 0.17130922088681622
1024.67 0.17130922088681622
1024.95 0.19297922088681607
1025.23 0.16630922088681632
1025.51 0.16297922088681627
1025.79 0.14130922088681597
1026.07 0.1463092208868163
1026.35 0.14797922088681614
1026.63 0.14463922088681602
1026.91 0.18630922088681634
1027.19 0.16630922088681632
1027.47 0.16797922088681616
1027.75 0.16297922088681627
1028.03 0.14797922088681614
1028.31 0.15463922088681625
1028.59 0.181309220886816
1028.87 0.16130922088681598
1029.15 0.15463922088681625
1029.43 0.14297922088681625
1029.71 0.19297922088681607
1030.0 0.14463922088681602
1030.27 0.15463922088681625
1030.56 0.17297922088681605
1030.84 0.1946392208868163
1031.12 0.181309220886816
1031.4 0.16297922088681627
1031.68 0.17797922088681595
1031.96 0.17797922088681595
1032.24 0.2079792208868162
1032.52 0.14963922088681636
1032.8 0.17130922088681622
1033.08 0.17297922088681605
1033.36 0.17463922088681627
1033.64 0.17797922088681595
1033.92 0.18797922088681618
1034.2 0.1763092208868161
1034.48 0.1763092208868161
1034.76 0.18963922088681595
1035.04 0.18963922088681595
1035.32 0.18963922088681595
1035.6 0.181309220886816
1035.88 0.19963922088681618
1036.16 0.19963922088681618
1036.44 0.16630922088681632
1036.72 0.181309220886816
1037.0 0.17297922088681605
1037.28 0.19630922088681613
1037.56 0.18297922088681629
1037.84 0.181309220886816
1038.12 0.17797922088681595
1038.4 0.17963922088681616
1038.68 0.181309220886816
1038.96 0.19130922088681623
1039.24 0.21797922088681598
1039.52 0.19297922088681607
1039.79 0.18963922088681595
1040.08 0.17130922088681622
1040.35 0.18463922088681606
1040.64 0.2196392208868162
1040.91 0.2079792208868162
1041.19 0.18963922088681595
1041.47 0.18297922088681629
1041.75 0.19797922088681597
1042.03 0.18297922088681629
1042.31 0.17797922088681595
1042.59 0.20963922088681597
1042.87 0.19630922088681613
1043.15 0.20463922088681608
1043.43 0.22130922088681604
1043.71 0.20463922088681608
1043.99 0.19630922088681613
1044.27 0.22130922088681604
1044.55 0.19963922088681618
1044.83 0.22130922088681604
1045.11 0.2129792208868161
1045.39 0.2129792208868161
1045.67 0.23963922088681622
1045.95 0.2129792208868161
1046.23 0.20630922088681636
1046.51 0.23130922088681627
1046.79 0.229639220886816
1047.06 0.22130922088681604
1047.34 0.19130922088681623
1047.62 0.2246392208868161
1047.9 0.2329792208868161
1048.18 0.24797922088681623
1048.46 0.1946392208868163
1048.74 0.2196392208868162
1049.02 0.2563092208868162
1049.3 0.22130922088681604
1049.58 0.24130922088681606
1049.86 0.22630922088681593
1050.14 0.21130922088681625
1050.42 0.23130922088681627
1050.7 0.22797922088681621
1050.97 0.23130922088681627
1051.25 0.26630922088681597
1051.53 0.2446392208868161
1051.81 0.21630922088681614
1052.09 0.2529792208868161
1052.37 0.25463922088681634
1052.65 0.22130922088681604
1052.93 0.249639220886816
1053.21 0.2246392208868161
1053.49 0.23630922088681616
1053.77 0.2146392208868163
1054.05 0.2529792208868161
1054.32 0.2513092208868163
1054.6 0.2329792208868161
1054.88 0.249639220886816
1055.16 0.24297922088681634
1055.44 0.249639220886816
1055.72 0.25963922088681624
1056.0 0.27463922088681636
1056.28 0.24130922088681606
1056.56 0.26630922088681597
1056.84 0.229639220886816
1057.11 0.269639220886816
1057.39 0.269639220886816
1057.67 0.2613092208868161
1057.95 0.2813092208868161
1058.23 0.2513092208868163
1058.51 0.269639220886816
1058.79 0.2529792208868161
1059.07 0.2713092208868163
1059.34 0.27463922088681636
1059.62 0.25963922088681624
1059.9 0.249639220886816
1060.18 0.28463922088681615
1060.46 0.24630922088681595
1060.74 0.24797922088681623
1061.02 0.2763092208868162
1061.3 0.29463922088681593
1061.57 0.28963922088681604
1061.85 0.2913092208868163
1062.13 0.269639220886816
1062.41 0.2913092208868163
1062.69 0.27797922088681604
1062.97 0.2613092208868161
1063.25 0.2963092208868162
1063.53 0.28463922088681615
1063.8 0.31463922088681595
1064.08 0.2813092208868161
1064.36 0.3013092208868161
1064.64 0.2913092208868163
1064.92 0.29797922088681605
1065.2 0.31130922088681634
1065.47 0.3213092208868161
1065.75 0.3013092208868161
1066.03 0.3013092208868161
1066.31 0.31797922088681607
1066.59 0.2963092208868162
1066.87 0.30297922088681595
1067.14 0.3246392208868162
1067.42 0.32297922088681597
1067.7 0.29963922088681627
1067.98 0.3013092208868161
1068.26 0.3196392208868163
1068.54 0.31130922088681634
1068.82 0.31130922088681634
1069.09 0.29963922088681627
1069.37 0.30297922088681595
1069.65 0.31630922088681623
1069.93 0.30963922088681606
1070.21 0.3079792208868163
1070.48 0.3013092208868161
1070.76 0.306309220886816
1071.04 0.3329792208868162
1071.32 0.31797922088681607
1071.6 0.30963922088681606
1071.87 0.32297922088681597
1072.15 0.32297922088681597
1072.43 0.326309220886816
1072.71 0.2963092208868162
1072.99 0.31797922088681607
1073.26 0.3396392208868163
1073.54 0.3296392208868161
1073.82 0.30963922088681606
1074.1 0.29963922088681627
1074.38 0.3279792208868163
1074.65 0.342979220886816
1074.93 0.3529792208868162
1075.21 0.32297922088681597
1075.49 0.3196392208868163
1075.77 0.326309220886816
1076.05 0.3296392208868161
1076.32 0.33130922088681636
1076.6 0.3129792208868162
1076.88 0.34130922088681614
1077.16 0.3246392208868162
1077.43 0.3446392208868162
1077.71 0.3129792208868162
1077.99 0.2963092208868162
1078.27 0.34630922088681604
1078.55 0.3196392208868163
1078.82 0.3329792208868162
1079.1 0.3296392208868161
1079.38 0.3329792208868162
1079.66 0.342979220886816
1079.93 0.3329792208868162
1080.21 0.3213092208868161
1080.49 0.3246392208868162
1080.77 0.35130922088681593
1081.05 0.342979220886816
1081.32 0.35630922088681627
1081.6 0.3529792208868162
1081.88 0.33463922088681597
1082.16 0.3379792208868161
1082.43 0.3196392208868163
1082.71 0.3213092208868161
1082.99 0.34130922088681614
1083.27 0.3579792208868161
1083.54 0.3446392208868162
1083.82 0.342979220886816
1084.1 0.34130922088681614
1084.38 0.35130922088681593
1084.65 0.3396392208868163
1084.93 0.342979220886816
1085.21 0.3379792208868161
1085.49 0.3279792208868163
1085.76 0.354639220886816
1086.04 0.3696392208868161
1086.32 0.33630922088681625
1086.6 0.34130922088681614
1086.87 0.374639220886816
1087.15 0.3279792208868163
1087.43 0.3646392208868162
1087.71 0.3763092208868163
1087.98 0.354639220886816
1088.26 0.36130922088681616
1088.54 0.33130922088681636
1088.81 0.37297922088681623
1089.09 0.3696392208868161
1089.37 0.3579792208868161
1089.65 0.3596392208868163
1089.92 0.3379792208868161
1090.2 0.34130922088681614
1090.48 0.36797922088681634
1090.75 0.35130922088681593
1091.03 0.34130922088681614
