# Created: 2019-11-28 15:23:39.485756
# rshift intensity
13.5527 0.03332999999999986
13.8821 0.0466599999999997
14.2095 0.02332999999999963
14.5367 0.029999999999999805
14.864 0.020000000000000018
15.1913 0.016659999999999897
15.5186 0.026659999999999684
15.8458 0.02332999999999963
16.173 0.029999999999999805
16.5003 0.026659999999999684
16.8275 0.03332999999999986
17.1547 0.040000000000000036
17.4819 0.006659999999999666
17.809 0.026659999999999684
18.1362 0.009999999999999787
18.4634 0.04332999999999965
18.7905 0.016659999999999897
19.1176 0.036659999999999915
19.4448 0.02332999999999963
19.7719 0.026659999999999684
20.1011 0.040000000000000036
20.4282 0.013329999999999842
20.7553 0.04332999999999965
21.0823 0.013329999999999842
21.4094 0.036659999999999915
21.7364 0.026659999999999684
22.0635 0.0466599999999997
22.3905 0.0466599999999997
22.7175 0.020000000000000018
23.0445 0.0466599999999997
23.3715 0.026659999999999684
23.6985 0.029999999999999805
24.0254 0.026659999999999684
24.3524 0.026659999999999684
24.6793 0.04332999999999965
25.0062 0.013329999999999842
25.3331 0.026659999999999684
25.6601 0.029999999999999805
25.9869 0.026659999999999684
26.3138 0.02332999999999963
26.6407 0.03332999999999986
26.9676 0.02332999999999963
27.2944 0.016659999999999897
27.6212 0.009999999999999787
27.9481 0.020000000000000018
28.2727 0.020000000000000018
28.5995 0.036659999999999915
28.9263 0.03332999999999986
29.2531 0.036659999999999915
29.5799 0.026659999999999684
29.9066 0.029999999999999805
30.2334 0.036659999999999915
30.5601 0.02332999999999963
30.8868 0.016659999999999897
31.2135 0.03332999999999986
31.5402 0.02332999999999963
31.8669 0.03332999999999986
32.1936 0.02332999999999963
32.5203 0.040000000000000036
32.8469 0.03332999999999986
33.1736 0.013329999999999842
33.5002 0.029999999999999805
33.8268 0.03332999999999986
34.1513 0.026659999999999684
34.4779 0.029999999999999805
34.8045 0.036659999999999915
35.1311 0.04332999999999965
35.4576 0.03332999999999986
35.7842 0.016659999999999897
36.1107 0.02332999999999963
36.4372 0.03332999999999986
36.7638 0.020000000000000018
37.0903 0.020000000000000018
37.4168 0.016659999999999897
37.7432 0.03332999999999986
38.0676 0.029999999999999805
38.394 0.029999999999999805
38.7205 0.03332999999999986
39.0469 0.029999999999999805
39.3733 0.03332999999999986
39.6998 0.040000000000000036
40.0262 0.03332999999999986
40.3526 0.029999999999999805
40.6768 0.020000000000000018
41.0032 0.02332999999999963
41.3295 0.03332999999999986
41.6559 0.040000000000000036
41.9822 0.036659999999999915
42.3085 0.026659999999999684
42.6348 0.029999999999999805
42.9611 0.016659999999999897
43.2853 0.0466599999999997
43.6116 0.013329999999999842
43.9378 0.036659999999999915
44.2641 0.04999999999999982
44.5903 0.020000000000000018
44.9166 0.026659999999999684
45.2428 0.029999999999999805
45.5669 0.013329999999999842
45.8931 0.020000000000000018
46.2193 0.04332999999999965
46.5454 0.03332999999999986
46.8716 0.026659999999999684
47.1978 0.029999999999999805
47.5218 0.036659999999999915
47.8479 0.040000000000000036
48.174 0.03332999999999986
48.5001 0.02332999999999963
48.8262 0.03332999999999986
49.1502 0.040000000000000036
49.4762 0.03332999999999986
49.8023 0.029999999999999805
50.1284 0.026659999999999684
50.4544 0.026659999999999684
50.7783 0.02332999999999963
51.1043 0.029999999999999805
51.4303 0.03332999999999986
51.7563 0.02332999999999963
52.0823 0.020000000000000018
52.4061 0.02332999999999963
52.7321 0.026659999999999684
53.058 0.03332999999999986
53.384 0.013329999999999842
53.7099 0.03332999999999986
54.0337 0.04999999999999982
54.3596 0.026659999999999684
54.6855 0.013329999999999842
55.0114 0.026659999999999684
55.3351 0.026659999999999684
55.6609 0.026659999999999684
55.9868 0.026659999999999684
56.3126 0.040000000000000036
56.6363 0.02332999999999963
56.9621 0.040000000000000036
57.2879 0.020000000000000018
57.6137 0.020000000000000018
57.9374 0.026659999999999684
58.2631 0.03332999999999986
58.5889 0.036659999999999915
58.9146 0.029999999999999805
59.2382 0.02332999999999963
59.564 0.03332999999999986
59.8897 0.04332999999999965
60.2154 0.0466599999999997
60.5389 0.020000000000000018
60.8646 0.020000000000000018
61.1903 0.02332999999999963
61.5159 0.03332999999999986
61.8394 0.03332999999999986
62.1651 0.029999999999999805
62.4907 0.03332999999999986
62.8142 0.02332999999999963
63.1398 0.036659999999999915
63.4654 0.029999999999999805
63.7909 0.016659999999999897
64.1144 0.04332999999999965
64.4399 0.03332999999999986
64.7655 0.026659999999999684
65.0889 0.016659999999999897
65.4144 0.02332999999999963
65.7399 0.02332999999999963
66.0632 0.040000000000000036
66.3887 0.040000000000000036
66.7142 0.02332999999999963
67.0375 0.036659999999999915
67.363 0.026659999999999684
67.6884 0.036659999999999915
68.0117 0.0466599999999997
68.3371 0.026659999999999684
68.6625 0.0466599999999997
68.9858 0.03332999999999986
69.3112 0.06665999999999972
69.6366 0.029999999999999805
69.9598 0.05665999999999993
70.2851 0.06665999999999972
70.6105 0.04999999999999982
70.9337 0.08665999999999974
71.259 0.07665999999999995
71.5843 0.11332999999999993
71.9074 0.09999999999999964
72.2327 0.10999999999999988
72.558 0.11332999999999993
72.8811 0.1299999999999999
73.2064 0.13666
73.5295 0.1466599999999998
73.8547 0.12332999999999972
74.1799 0.08665999999999974
74.503 0.09999999999999964
74.8282 0.06999999999999984
75.1534 0.06999999999999984
75.4764 0.029999999999999805
75.8016 0.03332999999999986
76.1246 0.0466599999999997
76.4497 0.0466599999999997
76.7748 0.0466599999999997
77.0978 0.05665999999999993
77.4229 0.04332999999999965
77.7459 0.05999999999999961
78.071 0.040000000000000036
78.396 0.029999999999999805
78.7189 0.040000000000000036
79.044 0.029999999999999805
79.3669 0.040000000000000036
79.6919 0.026659999999999684
80.0169 0.029999999999999805
80.3398 0.0466599999999997
80.6648 0.036659999999999915
80.9876 0.03332999999999986
81.3126 0.013329999999999842
81.6354 0.009999999999999787
81.9604 0.0466599999999997
82.2853 0.026659999999999684
82.6081 0.03332999999999986
82.933 0.029999999999999805
83.2558 0.036659999999999915
83.5807 0.036659999999999915
83.9034 0.026659999999999684
84.2283 0.04332999999999965
84.551 0.036659999999999915
84.8758 0.02332999999999963
85.2007 0.0466599999999997
85.5234 0.03332999999999986
85.8482 0.026659999999999684
86.1708 0.020000000000000018
86.4956 0.02332999999999963
86.8183 0.02332999999999963
87.143 0.029999999999999805
87.4657 0.02332999999999963
87.7904 0.020000000000000018
88.113 0.020000000000000018
88.4377 0.026659999999999684
88.7603 0.026659999999999684
89.085 0.013329999999999842
89.4075 0.029999999999999805
89.7322 0.036659999999999915
90.0547 0.026659999999999684
90.3794 0.03332999999999986
90.7019 0.026659999999999684
91.0265 0.026659999999999684
91.349 0.020000000000000018
91.6736 0.016659999999999897
91.9961 0.02332999999999963
92.3207 0.040000000000000036
92.6431 0.029999999999999805
92.9677 0.040000000000000036
93.2901 0.02332999999999963
93.6147 0.029999999999999805
93.937 0.020000000000000018
94.2616 0.029999999999999805
94.5839 0.020000000000000018
94.9084 0.029999999999999805
95.2308 0.026659999999999684
95.5553 0.013329999999999842
95.8776 0.03332999999999986
96.202 0.03332999999999986
96.5244 0.016659999999999897
96.8466 0.036659999999999915
97.1711 0.029999999999999805
97.4933 0.020000000000000018
97.8177 0.036659999999999915
98.14 0.03332999999999986
98.4644 0.013329999999999842
98.7866 0.03332999999999986
99.1109 0.02332999999999963
99.4332 0.026659999999999684
99.7553 0.026659999999999684
100.08 0.02332999999999963
100.402 0.040000000000000036
100.726 0.029999999999999805
101.048 0.026659999999999684
101.373 0.009999999999999787
101.695 0.04332999999999965
102.017 0.026659999999999684
102.341 0.03332999999999986
102.663 0.03332999999999986
102.987 0.0466599999999997
103.309 0.04332999999999965
103.631 0.036659999999999915
103.956 0.06665999999999972
104.278 0.04999999999999982
104.602 0.036659999999999915
104.924 0.026659999999999684
105.246 0.029999999999999805
105.57 0.036659999999999915
105.892 0.040000000000000036
106.214 0.03332999999999986
106.538 0.009999999999999787
106.86 0.04332999999999965
107.184 0.036659999999999915
107.506 0.040000000000000036
107.828 0.02332999999999963
108.152 0.036659999999999915
108.474 0.029999999999999805
108.796 0.026659999999999684
109.12 0.040000000000000036
109.442 0.013329999999999842
109.766 0.036659999999999915
110.087 0.040000000000000036
110.409 0.029999999999999805
110.733 0.020000000000000018
111.055 0.026659999999999684
111.377 0.036659999999999915
111.701 0.020000000000000018
112.023 0.029999999999999805
112.344 0.03332999999999986
112.668 0.04332999999999965
112.99 0.040000000000000036
113.312 0.029999999999999805
113.635 0.036659999999999915
113.957 0.036659999999999915
114.279 0.0466599999999997
114.603 0.006659999999999666
114.924 0.026659999999999684
115.246 0.029999999999999805
115.568 0.0466599999999997
115.891 0.029999999999999805
116.213 0.036659999999999915
116.535 0.029999999999999805
116.858 0.04999999999999982
117.18 0.029999999999999805
117.502 0.0
117.825 0.03332999999999986
118.147 0.03332999999999986
118.468 0.020000000000000018
118.79 0.029999999999999805
119.114 0.026659999999999684
119.435 0.0466599999999997
119.757 0.016659999999999897
120.08 0.04332999999999965
120.402 0.02332999999999963
120.723 0.026659999999999684
121.045 0.020000000000000018
121.368 0.036659999999999915
121.69 0.040000000000000036
122.011 0.009999999999999787
122.333 0.05332999999999988
122.656 0.020000000000000018
122.977 0.020000000000000018
123.299 0.04332999999999965
123.62 0.02332999999999963
123.944 0.05332999999999988
124.265 0.02332999999999963
124.586 0.036659999999999915
124.908 0.02332999999999963
125.231 0.026659999999999684
125.553 0.020000000000000018
125.874 0.04999999999999982
126.195 0.04332999999999965
126.518 0.03332999999999986
126.84 0.05332999999999988
127.161 0.029999999999999805
127.482 0.029999999999999805
127.803 0.040000000000000036
128.127 0.029999999999999805
128.448 0.0466599999999997
128.769 0.020000000000000018
129.09 0.04332999999999965
129.412 0.04332999999999965
129.735 0.05665999999999993
130.056 0.029999999999999805
130.377 0.020000000000000018
130.698 0.029999999999999805
131.019 0.05332999999999988
131.343 0.03332999999999986
131.664 0.04332999999999965
131.985 0.006659999999999666
132.306 0.0466599999999997
132.627 0.04332999999999965
132.95 0.020000000000000018
133.271 0.04332999999999965
133.592 0.029999999999999805
133.913 0.026659999999999684
134.234 0.04999999999999982
134.555 0.026659999999999684
134.878 0.020000000000000018
135.199 0.036659999999999915
135.52 0.04332999999999965
135.841 0.029999999999999805
136.162 0.013329999999999842
136.483 0.026659999999999684
136.804 0.029999999999999805
137.127 0.026659999999999684
137.448 0.029999999999999805
137.769 0.02332999999999963
138.09 0.026659999999999684
138.411 0.0466599999999997
138.731 0.04332999999999965
139.052 0.02332999999999963
139.375 0.036659999999999915
139.696 0.026659999999999684
140.017 0.0466599999999997
140.338 0.03332999999999986
140.658 0.040000000000000036
140.979 0.02332999999999963
141.3 0.04332999999999965
141.621 0.029999999999999805
141.941 0.03332999999999986
142.264 0.04332999999999965
142.585 0.029999999999999805
142.906 0.03332999999999986
143.226 0.04332999999999965
143.547 0.040000000000000036
143.868 0.0466599999999997
144.189 0.036659999999999915
144.509 0.036659999999999915
144.83 0.04332999999999965
145.15 0.04999999999999982
145.471 0.016659999999999897
145.794 0.04332999999999965
146.114 0.04332999999999965
146.435 0.03332999999999986
146.756 0.029999999999999805
147.076 0.009999999999999787
147.397 0.029999999999999805
147.717 0.040000000000000036
148.038 0.04332999999999965
148.358 0.02332999999999963
148.679 0.06665999999999972
148.999 0.0466599999999997
149.32 0.05332999999999988
149.64 0.03332999999999986
149.961 0.026659999999999684
150.281 0.02332999999999963
150.602 0.026659999999999684
150.922 0.05332999999999988
151.242 0.016659999999999897
151.563 0.06332999999999966
151.883 0.03332999999999986
152.206 0.029999999999999805
152.526 0.029999999999999805
152.847 0.016659999999999897
153.167 0.0466599999999997
153.487 0.020000000000000018
153.808 0.036659999999999915
154.128 0.03332999999999986
154.448 0.026659999999999684
154.769 0.029999999999999805
155.089 0.029999999999999805
155.409 0.02332999999999963
155.729 0.04332999999999965
156.05 0.029999999999999805
156.37 0.026659999999999684
156.69 0.029999999999999805
157.01 0.03332999999999986
157.331 0.009999999999999787
157.651 0.05665999999999993
157.971 0.02332999999999963
158.291 0.040000000000000036
158.609 0.03332999999999986
158.929 0.03332999999999986
159.25 0.0466599999999997
159.57 0.04332999999999965
159.89 0.036659999999999915
160.21 0.02332999999999963
160.53 0.036659999999999915
160.85 0.03332999999999986
161.17 0.036659999999999915
161.49 0.02332999999999963
161.81 0.026659999999999684
162.13 0.029999999999999805
162.45 0.03332999999999986
162.77 0.05665999999999993
163.09 0.026659999999999684
163.41 0.026659999999999684
163.73 0.029999999999999805
164.05 0.05332999999999988
164.37 0.04332999999999965
164.69 0.03332999999999986
165.008 0.040000000000000036
165.328 0.02332999999999963
165.648 0.05332999999999988
165.968 0.040000000000000036
166.288 0.029999999999999805
166.608 0.03332999999999986
166.928 0.036659999999999915
167.248 0.05332999999999988
167.567 0.040000000000000036
167.887 0.02332999999999963
168.207 0.036659999999999915
168.527 0.016659999999999897
168.845 0.0466599999999997
169.164 0.009999999999999787
169.484 0.04332999999999965
169.804 0.026659999999999684
170.124 0.03332999999999986
170.444 0.040000000000000036
170.763 0.04332999999999965
171.083 0.029999999999999805
171.401 0.04999999999999982
171.72 0.029999999999999805
172.04 0.04332999999999965
172.36 0.026659999999999684
172.679 0.0466599999999997
172.999 0.04999999999999982
173.319 0.05999999999999961
173.638 0.0466599999999997
173.956 0.04999999999999982
174.276 0.0466599999999997
174.595 0.04332999999999965
174.915 0.04332999999999965
175.234 0.036659999999999915
175.554 0.036659999999999915
175.871 0.03332999999999986
176.191 0.029999999999999805
176.511 0.020000000000000018
176.83 0.0466599999999997
177.15 0.04332999999999965
177.469 0.026659999999999684
177.787 0.04332999999999965
178.106 0.04999999999999982
178.426 0.029999999999999805
178.745 0.0466599999999997
179.065 0.029999999999999805
179.384 0.03332999999999986
179.701 0.05665999999999993
180.021 0.04332999999999965
180.34 0.04332999999999965
180.66 0.020000000000000018
180.979 0.016659999999999897
181.296 0.029999999999999805
181.616 0.040000000000000036
181.935 0.029999999999999805
182.254 0.0466599999999997
182.574 0.040000000000000036
182.891 0.03332999999999986
183.21 0.040000000000000036
183.53 0.04999999999999982
183.849 0.040000000000000036
184.166 0.036659999999999915
184.485 0.03332999999999986
184.805 0.03332999999999986
185.124 0.040000000000000036
185.443 0.029999999999999805
185.76 0.036659999999999915
186.079 0.036659999999999915
186.399 0.026659999999999684
186.718 0.040000000000000036
187.035 0.029999999999999805
187.354 0.029999999999999805
187.673 0.040000000000000036
187.993 0.03332999999999986
188.31 0.016659999999999897
188.629 0.04332999999999965
188.948 0.040000000000000036
189.265 0.020000000000000018
189.584 0.036659999999999915
189.903 0.0466599999999997
190.222 0.036659999999999915
190.539 0.02332999999999963
190.858 0.03332999999999986
191.177 0.026659999999999684
191.496 0.02332999999999963
191.813 0.04332999999999965
192.132 0.029999999999999805
192.451 0.03332999999999986
192.768 0.029999999999999805
193.087 0.009999999999999787
193.406 0.04332999999999965
193.725 0.036659999999999915
194.042 0.0466599999999997
194.361 0.016659999999999897
194.68 0.040000000000000036
194.997 0.029999999999999805
195.315 0.029999999999999805
195.634 0.03332999999999986
195.951 0.013329999999999842
196.27 0.05665999999999993
196.589 0.026659999999999684
196.906 0.04332999999999965
197.224 0.036659999999999915
197.543 0.026659999999999684
197.86 0.04332999999999965
198.179 0.013329999999999842
198.498 0.0466599999999997
198.814 0.040000000000000036
199.133 0.0466599999999997
199.452 0.036659999999999915
199.768 0.03332999999999986
200.087 0.020000000000000018
200.406 0.04999999999999982
200.723 0.0466599999999997
201.041 0.036659999999999915
201.36 0.05332999999999988
201.677 0.016659999999999897
201.995 0.05332999999999988
202.312 0.026659999999999684
202.63 0.05999999999999961
202.949 0.05332999999999988
203.266 0.04332999999999965
203.584 0.05332999999999988
203.903 0.040000000000000036
204.219 0.036659999999999915
204.538 0.03332999999999986
204.854 0.026659999999999684
205.173 0.03332999999999986
205.492 0.040000000000000036
205.808 0.04999999999999982
206.127 0.04999999999999982
206.443 0.04332999999999965
206.762 0.029999999999999805
207.08 0.04332999999999965
207.396 0.04332999999999965
207.715 0.0466599999999997
208.031 0.036659999999999915
208.35 0.0466599999999997
208.666 0.06332999999999966
208.984 0.02332999999999963
209.303 0.05999999999999961
209.619 0.03332999999999986
209.938 0.05999999999999961
210.254 0.05332999999999988
210.572 0.03332999999999986
210.889 0.040000000000000036
211.207 0.029999999999999805
211.525 0.06332999999999966
211.842 0.03332999999999986
212.16 0.0466599999999997
212.476 0.03332999999999986
212.794 0.06332999999999966
213.111 0.05332999999999988
213.429 0.036659999999999915
213.745 0.06665999999999972
214.063 0.040000000000000036
214.379 0.06332999999999966
214.698 0.029999999999999805
215.016 0.05332999999999988
215.332 0.04332999999999965
215.65 0.036659999999999915
215.966 0.06332999999999966
216.285 0.036659999999999915
216.601 0.04332999999999965
216.919 0.029999999999999805
217.235 0.04332999999999965
217.553 0.0466599999999997
217.869 0.05665999999999993
218.187 0.036659999999999915
218.503 0.040000000000000036
218.821 0.05332999999999988
219.137 0.036659999999999915
219.455 0.05665999999999993
219.771 0.05332999999999988
220.089 0.05665999999999993
220.405 0.04999999999999982
220.723 0.040000000000000036
221.039 0.05665999999999993
221.357 0.0466599999999997
221.673 0.06665999999999972
221.991 0.0466599999999997
222.307 0.04999999999999982
222.623 0.03332999999999986
222.941 0.05332999999999988
223.257 0.0466599999999997
223.575 0.036659999999999915
223.891 0.040000000000000036
224.208 0.0466599999999997
224.524 0.04999999999999982
224.842 0.036659999999999915
225.158 0.04999999999999982
225.476 0.036659999999999915
225.792 0.03332999999999986
226.107 0.016659999999999897
226.425 0.04332999999999965
226.741 0.0466599999999997
227.059 0.05665999999999993
227.374 0.05665999999999993
227.692 0.04332999999999965
228.008 0.03332999999999986
228.324 0.036659999999999915
228.641 0.029999999999999805
228.957 0.040000000000000036
229.275 0.04999999999999982
229.59 0.04999999999999982
229.908 0.0466599999999997
230.224 0.05999999999999961
230.539 0.05665999999999993
230.857 0.05665999999999993
231.173 0.05332999999999988
231.49 0.05665999999999993
231.806 0.05999999999999961
232.121 0.04332999999999965
232.439 0.0466599999999997
232.755 0.0466599999999997
233.072 0.04999999999999982
233.388 0.05665999999999993
233.703 0.036659999999999915
234.021 0.04332999999999965
234.336 0.040000000000000036
234.652 0.040000000000000036
234.969 0.05332999999999988
235.285 0.06332999999999966
235.6 0.0466599999999997
235.918 0.05665999999999993
236.233 0.026659999999999684
236.551 0.040000000000000036
236.866 0.04332999999999965
237.181 0.04999999999999982
237.499 0.036659999999999915
237.814 0.04999999999999982
238.129 0.05999999999999961
238.447 0.06332999999999966
238.762 0.0466599999999997
239.077 0.05665999999999993
239.395 0.026659999999999684
239.71 0.04332999999999965
240.025 0.029999999999999805
240.343 0.04999999999999982
240.658 0.05665999999999993
240.973 0.04332999999999965
241.291 0.04332999999999965
241.606 0.04332999999999965
241.921 0.0733299999999999
242.238 0.0466599999999997
242.554 0.016659999999999897
242.869 0.029999999999999805
243.184 0.0466599999999997
243.501 0.036659999999999915
243.816 0.0466599999999997
244.131 0.06665999999999972
244.449 0.04999999999999982
244.764 0.04332999999999965
245.079 0.040000000000000036
245.394 0.03332999999999986
245.711 0.0466599999999997
246.026 0.04999999999999982
246.341 0.06665999999999972
246.659 0.04332999999999965
246.974 0.05332999999999988
247.289 0.04999999999999982
247.604 0.0466599999999997
247.921 0.04332999999999965
248.236 0.05332999999999988
248.551 0.04999999999999982
248.866 0.05332999999999988
249.183 0.05332999999999988
249.498 0.040000000000000036
249.813 0.04332999999999965
250.128 0.026659999999999684
250.445 0.04332999999999965
250.76 0.05999999999999961
251.074 0.040000000000000036
251.389 0.040000000000000036
251.706 0.03332999999999986
252.021 0.06665999999999972
252.336 0.0466599999999997
252.651 0.04999999999999982
252.968 0.05332999999999988
253.283 0.05665999999999993
253.597 0.03332999999999986
253.912 0.040000000000000036
254.227 0.0733299999999999
254.544 0.05665999999999993
254.859 0.04999999999999982
255.173 0.036659999999999915
255.488 0.0466599999999997
255.803 0.04332999999999965
256.12 0.04999999999999982
256.435 0.026659999999999684
256.749 0.029999999999999805
257.064 0.04332999999999965
257.379 0.026659999999999684
257.695 0.0466599999999997
258.01 0.0466599999999997
258.325 0.040000000000000036
258.639 0.04332999999999965
258.954 0.040000000000000036
259.269 0.03332999999999986
259.585 0.040000000000000036
259.9 0.029999999999999805
260.215 0.040000000000000036
260.529 0.04332999999999965
260.844 0.040000000000000036
261.158 0.04332999999999965
261.475 0.029999999999999805
261.789 0.0466599999999997
262.104 0.04999999999999982
262.418 0.03332999999999986
262.733 0.040000000000000036
263.047 0.04332999999999965
263.362 0.036659999999999915
263.678 0.05665999999999993
263.993 0.04332999999999965
264.307 0.03332999999999986
264.622 0.04999999999999982
264.936 0.04332999999999965
265.251 0.05332999999999988
265.565 0.05332999999999988
265.88 0.0466599999999997
266.196 0.0466599999999997
266.51 0.04332999999999965
266.825 0.04332999999999965
267.139 0.05665999999999993
267.453 0.0466599999999997
267.768 0.04999999999999982
268.082 0.04332999999999965
268.396 0.04999999999999982
268.711 0.05332999999999988
269.025 0.04999999999999982
269.341 0.03332999999999986
269.656 0.026659999999999684
269.97 0.020000000000000018
270.284 0.05665999999999993
270.598 0.06332999999999966
270.913 0.026659999999999684
271.227 0.06665999999999972
271.541 0.05999999999999961
271.855 0.036659999999999915
272.169 0.05332999999999988
272.484 0.05332999999999988
272.798 0.0466599999999997
273.112 0.029999999999999805
273.426 0.036659999999999915
273.742 0.026659999999999684
274.056 0.04332999999999965
274.371 0.04332999999999965
274.685 0.04332999999999965
274.999 0.05999999999999961
275.313 0.03332999999999986
275.627 0.04332999999999965
275.941 0.05999999999999961
276.255 0.04332999999999965
276.569 0.03332999999999986
276.883 0.036659999999999915
277.197 0.04999999999999982
277.511 0.04999999999999982
277.825 0.040000000000000036
278.139 0.05332999999999988
278.453 0.0466599999999997
278.767 0.04332999999999965
279.081 0.036659999999999915
279.395 0.05332999999999988
279.709 0.04999999999999982
280.023 0.0466599999999997
280.337 0.04999999999999982
280.651 0.04332999999999965
280.964 0.0466599999999997
281.278 0.05665999999999993
281.592 0.04332999999999965
281.906 0.04332999999999965
282.22 0.05665999999999993
282.534 0.04332999999999965
282.848 0.04332999999999965
283.161 0.04999999999999982
283.475 0.05999999999999961
283.789 0.05332999999999988
284.103 0.03332999999999986
284.417 0.05332999999999988
284.73 0.05332999999999988
285.044 0.04999999999999982
285.358 0.0466599999999997
285.671 0.0466599999999997
285.985 0.036659999999999915
286.297 0.0466599999999997
286.611 0.04332999999999965
286.924 0.0466599999999997
287.238 0.0466599999999997
287.552 0.04999999999999982
287.865 0.04332999999999965
288.179 0.040000000000000036
288.492 0.03332999999999986
288.806 0.05999999999999961
289.12 0.03332999999999986
289.433 0.05665999999999993
289.747 0.04332999999999965
290.06 0.06332999999999966
290.374 0.04999999999999982
290.685 0.06332999999999966
290.999 0.05665999999999993
291.313 0.029999999999999805
291.626 0.06665999999999972
291.94 0.04332999999999965
292.253 0.03332999999999986
292.567 0.036659999999999915
292.88 0.029999999999999805
293.194 0.05332999999999988
293.507 0.05332999999999988
293.818 0.04999999999999982
294.132 0.0466599999999997
294.445 0.04332999999999965
294.759 0.04999999999999982
295.072 0.05665999999999993
295.385 0.0466599999999997
295.699 0.040000000000000036
296.012 0.04332999999999965
296.324 0.04999999999999982
296.637 0.04332999999999965
296.95 0.03332999999999986
297.264 0.05332999999999988
297.577 0.040000000000000036
297.89 0.029999999999999805
298.204 0.04332999999999965
298.515 0.06999999999999984
298.828 0.040000000000000036
299.141 0.05999999999999961
299.455 0.04332999999999965
299.768 0.0466599999999997
300.081 0.036659999999999915
300.394 0.040000000000000036
300.705 0.06332999999999966
301.019 0.0466599999999997
301.332 0.04332999999999965
301.645 0.04332999999999965
301.958 0.0466599999999997
302.269 0.036659999999999915
302.582 0.026659999999999684
302.896 0.016659999999999897
303.209 0.02332999999999963
303.522 0.040000000000000036
303.833 0.03332999999999986
304.146 0.05332999999999988
304.459 0.05332999999999988
304.772 0.029999999999999805
305.085 0.05332999999999988
305.396 0.04332999999999965
305.709 0.036659999999999915
306.022 0.04332999999999965
306.335 0.04332999999999965
306.648 0.05332999999999988
306.959 0.04332999999999965
307.272 0.05665999999999993
307.585 0.05665999999999993
307.898 0.0733299999999999
308.209 0.06999999999999984
308.522 0.05332999999999988
308.835 0.0466599999999997
309.148 0.040000000000000036
309.461 0.05332999999999988
309.772 0.029999999999999805
310.085 0.040000000000000036
310.397 0.0466599999999997
310.71 0.0466599999999997
311.021 0.05999999999999961
311.334 0.04999999999999982
311.647 0.04999999999999982
311.958 0.05332999999999988
312.27 0.06332999999999966
312.583 0.04999999999999982
312.896 0.04999999999999982
313.207 0.05332999999999988
313.519 0.05332999999999988
313.832 0.05999999999999961
314.145 0.03332999999999986
314.456 0.04332999999999965
314.768 0.05999999999999961
315.081 0.05665999999999993
315.392 0.06332999999999966
315.704 0.0466599999999997
316.017 0.06999999999999984
316.328 0.036659999999999915
316.641 0.0466599999999997
316.953 0.06332999999999966
317.266 0.036659999999999915
317.576 0.05332999999999988
317.889 0.036659999999999915
318.202 0.06999999999999984
318.512 0.06332999999999966
318.825 0.07999999999999963
319.137 0.05665999999999993
319.448 0.03332999999999986
319.76 0.05332999999999988
320.073 0.0466599999999997
320.383 0.0733299999999999
320.696 0.0466599999999997
321.009 0.06999999999999984
321.319 0.0466599999999997
321.632 0.0466599999999997
321.944 0.05665999999999993
322.254 0.04999999999999982
322.567 0.06332999999999966
322.879 0.06665999999999972
323.19 0.05332999999999988
323.502 0.06665999999999972
323.813 0.05999999999999961
324.125 0.06999999999999984
324.437 0.07999999999999963
324.748 0.09665999999999997
325.06 0.05665999999999993
325.372 0.0733299999999999
325.683 0.06332999999999966
325.995 0.0733299999999999
326.305 0.06665999999999972
326.618 0.06665999999999972
326.93 0.08999999999999986
327.24 0.06999999999999984
327.553 0.07665999999999995
327.865 0.06665999999999972
328.175 0.09999999999999964
328.487 0.09999999999999964
328.798 0.08332999999999968
329.11 0.07999999999999963
329.422 0.06999999999999984
329.732 0.09665999999999997
330.044 0.07665999999999995
330.355 0.08999999999999986
330.667 0.06999999999999984
330.977 0.06665999999999972
331.289 0.06332999999999966
331.601 0.08665999999999974
331.911 0.08999999999999986
332.224 0.06665999999999972
332.534 0.0466599999999997
332.846 0.06332999999999966
333.156 0.06665999999999972
333.468 0.05332999999999988
333.778 0.06999999999999984
334.09 0.05999999999999961
334.402 0.0466599999999997
334.712 0.05665999999999993
335.024 0.04999999999999982
335.334 0.06665999999999972
335.646 0.0733299999999999
335.956 0.06665999999999972
336.268 0.06332999999999966
336.578 0.06665999999999972
336.89 0.04999999999999982
337.2 0.06665999999999972
337.512 0.08665999999999974
337.822 0.04332999999999965
338.134 0.06332999999999966
338.444 0.036659999999999915
338.755 0.06999999999999984
339.065 0.06999999999999984
339.377 0.0733299999999999
339.687 0.06665999999999972
339.999 0.05332999999999988
340.309 0.07999999999999963
340.621 0.08332999999999968
340.93 0.0733299999999999
341.242 0.0733299999999999
341.552 0.0733299999999999
341.864 0.07665999999999995
342.174 0.05665999999999993
342.485 0.08665999999999974
342.795 0.06999999999999984
343.107 0.08665999999999974
343.417 0.06665999999999972
343.728 0.07999999999999963
344.038 0.06999999999999984
344.35 0.0733299999999999
344.659 0.06999999999999984
344.971 0.07665999999999995
345.281 0.05665999999999993
345.592 0.05332999999999988
345.902 0.08332999999999968
346.212 0.06665999999999972
346.523 0.0733299999999999
346.833 0.08332999999999968
347.145 0.07665999999999995
347.454 0.06665999999999972
347.766 0.0733299999999999
348.075 0.05999999999999961
348.387 0.07999999999999963
348.696 0.08332999999999968
349.006 0.05999999999999961
349.318 0.08999999999999986
349.627 0.08665999999999974
349.939 0.09332999999999991
350.248 0.06999999999999984
350.557 0.08999999999999986
350.869 0.08999999999999986
351.178 0.07665999999999995
351.49 0.07665999999999995
351.799 0.07999999999999963
352.109 0.08665999999999974
352.42 0.06999999999999984
352.73 0.05999999999999961
353.041 0.06665999999999972
353.35 0.04999999999999982
353.66 0.05332999999999988
353.971 0.07999999999999963
354.28 0.08332999999999968
354.592 0.05665999999999993
354.901 0.06332999999999966
355.211 0.06999999999999984
355.522 0.04999999999999982
355.831 0.08332999999999968
356.14 0.04999999999999982
356.452 0.08665999999999974
356.761 0.0466599999999997
357.07 0.0733299999999999
357.382 0.07999999999999963
357.691 0.04332999999999965
358.002 0.06999999999999984
358.311 0.04332999999999965
358.62 0.08332999999999968
358.932 0.05999999999999961
359.241 0.09665999999999997
359.55 0.05332999999999988
359.861 0.06665999999999972
360.17 0.05665999999999993
360.479 0.06665999999999972
360.791 0.06665999999999972
361.1 0.06665999999999972
361.409 0.07665999999999995
361.72 0.07665999999999995
362.029 0.05999999999999961
362.338 0.08332999999999968
362.647 0.06332999999999966
362.958 0.08332999999999968
363.267 0.08665999999999974
363.576 0.06999999999999984
363.887 0.0733299999999999
364.196 0.07665999999999995
364.505 0.06665999999999972
364.816 0.08999999999999986
365.125 0.07999999999999963
365.434 0.05999999999999961
365.743 0.06999999999999984
366.054 0.06999999999999984
366.363 0.06332999999999966
366.672 0.07665999999999995
366.981 0.07665999999999995
367.292 0.08332999999999968
367.601 0.05332999999999988
367.91 0.07665999999999995
368.221 0.06665999999999972
368.53 0.07665999999999995
368.838 0.06332999999999966
369.147 0.06999999999999984
369.458 0.05665999999999993
369.767 0.0733299999999999
370.076 0.07665999999999995
370.385 0.06665999999999972
370.695 0.06665999999999972
371.004 0.09332999999999991
371.313 0.08665999999999974
371.622 0.05332999999999988
371.93 0.06665999999999972
372.241 0.07665999999999995
372.55 0.06999999999999984
372.859 0.06665999999999972
373.167 0.06332999999999966
373.478 0.05332999999999988
373.787 0.08332999999999968
374.095 0.07999999999999963
374.404 0.05665999999999993
374.713 0.06332999999999966
375.023 0.04999999999999982
375.332 0.0733299999999999
375.641 0.08999999999999986
375.949 0.07665999999999995
376.258 0.0733299999999999
376.569 0.06999999999999984
376.877 0.08332999999999968
377.186 0.07665999999999995
377.494 0.08332999999999968
377.803 0.07665999999999995
378.111 0.0733299999999999
378.422 0.09999999999999964
378.73 0.08332999999999968
379.039 0.06999999999999984
379.347 0.07665999999999995
379.656 0.0733299999999999
379.964 0.08332999999999968
380.275 0.06999999999999984
380.583 0.07999999999999963
380.892 0.08332999999999968
381.2 0.06999999999999984
381.509 0.08332999999999968
381.817 0.0733299999999999
382.128 0.08332999999999968
382.436 0.06332999999999966
382.744 0.08665999999999974
383.053 0.08332999999999968
383.361 0.05999999999999961
383.669 0.08332999999999968
383.978 0.07999999999999963
384.286 0.07999999999999963
384.596 0.07999999999999963
384.905 0.09332999999999991
385.213 0.0733299999999999
385.521 0.0733299999999999
385.83 0.06332999999999966
386.138 0.07665999999999995
386.446 0.09332999999999991
386.754 0.08665999999999974
387.063 0.0733299999999999
387.373 0.0733299999999999
387.681 0.09999999999999964
387.989 0.08665999999999974
388.297 0.09332999999999991
388.606 0.0733299999999999
388.914 0.08999999999999986
389.222 0.09665999999999997
389.53 0.06665999999999972
389.838 0.1033299999999997
390.146 0.06332999999999966
390.454 0.08332999999999968
390.763 0.08999999999999986
391.071 0.09332999999999991
391.381 0.08665999999999974
391.689 0.07665999999999995
391.997 0.08332999999999968
392.305 0.09665999999999997
392.613 0.08665999999999974
392.921 0.06332999999999966
393.229 0.07665999999999995
393.537 0.09332999999999991
393.845 0.09665999999999997
394.153 0.0733299999999999
394.461 0.08665999999999974
394.769 0.07665999999999995
395.077 0.07999999999999963
395.385 0.05999999999999961
395.693 0.06999999999999984
396.001 0.0733299999999999
396.309 0.08999999999999986
396.617 0.08665999999999974
396.925 0.08665999999999974
397.233 0.07665999999999995
397.54 0.09999999999999964
397.848 0.08665999999999974
398.156 0.08665999999999974
398.464 0.07999999999999963
398.772 0.09332999999999991
399.08 0.06999999999999984
399.387 0.09332999999999991
399.695 0.08332999999999968
400.003 0.07665999999999995
400.311 0.07665999999999995
400.619 0.08665999999999974
400.926 0.08999999999999986
401.234 0.0733299999999999
401.542 0.11332999999999993
401.85 0.11999999999999966
402.157 0.08999999999999986
402.465 0.09999999999999964
402.773 0.08332999999999968
403.081 0.10999999999999988
403.388 0.06665999999999972
403.696 0.09665999999999997
404.004 0.09999999999999964
404.311 0.09665999999999997
404.619 0.08999999999999986
404.926 0.09999999999999964
405.234 0.10999999999999988
405.542 0.08665999999999974
405.847 0.07999999999999963
406.155 0.09665999999999997
406.462 0.10665999999999976
406.77 0.10665999999999976
407.078 0.09665999999999997
407.385 0.1299999999999999
407.693 0.10665999999999976
408.0 0.11999999999999966
408.308 0.10999999999999988
408.615 0.1033299999999997
408.923 0.11665999999999999
409.23 0.11332999999999993
409.536 0.13332999999999995
409.843 0.12332999999999972
410.151 0.13666
410.458 0.10999999999999988
410.765 0.11665999999999999
411.073 0.07999999999999963
411.38 0.10999999999999988
411.688 0.1466599999999998
411.995 0.11665999999999999
412.302 0.12665999999999977
412.608 0.1033299999999997
412.915 0.12332999999999972
413.223 0.12665999999999977
413.53 0.12332999999999972
413.837 0.13332999999999995
414.145 0.1466599999999998
414.452 0.13666
414.757 0.12665999999999977
415.064 0.13999999999999968
415.372 0.15666000000000002
415.679 0.1666599999999998
415.986 0.1299999999999999
416.293 0.1666599999999998
416.601 0.14332999999999974
416.906 0.1599999999999997
417.213 0.18332999999999977
417.52 0.16999999999999993
417.828 0.18332999999999977
418.135 0.18332999999999977
418.442 0.17999999999999972
418.747 0.1299999999999999
419.054 0.18665999999999983
419.361 0.1966599999999996
419.668 0.18332999999999977
419.976 0.1966599999999996
420.281 0.20999999999999996
420.588 0.2233299999999998
420.895 0.1966599999999996
421.202 0.2233299999999998
421.509 0.20999999999999996
421.814 0.21665999999999963
422.121 0.23333000000000004
422.428 0.21333000000000002
422.735 0.2033299999999998
423.042 0.2033299999999998
423.347 0.21665999999999963
423.654 0.2033299999999998
423.961 0.2666599999999999
424.268 0.22665999999999986
424.575 0.23333000000000004
424.88 0.21333000000000002
425.187 0.23999999999999977
425.494 0.18999999999999995
425.801 0.24332999999999982
426.106 0.2233299999999998
426.413 0.24332999999999982
426.72 0.23333000000000004
427.026 0.2033299999999998
427.331 0.21999999999999975
427.638 0.20999999999999996
427.945 0.1599999999999997
428.252 0.24665999999999988
428.557 0.21999999999999975
428.864 0.21333000000000002
429.17 0.20665999999999984
429.477 0.19333
429.782 0.24332999999999982
430.089 0.2033299999999998
430.395 0.22665999999999986
430.7 0.20999999999999996
431.007 0.17332999999999998
431.314 0.2033299999999998
431.62 0.17666000000000004
431.925 0.1966599999999996
432.232 0.18332999999999977
432.539 0.17332999999999998
432.843 0.1966599999999996
433.15 0.13999999999999968
433.457 0.17332999999999998
433.763 0.15332999999999997
434.068 0.15666000000000002
434.374 0.1466599999999998
434.681 0.16332999999999975
434.986 0.16332999999999975
435.292 0.14332999999999974
435.599 0.13666
435.903 0.1299999999999999
436.21 0.12665999999999977
436.517 0.11665999999999999
436.821 0.16332999999999975
437.128 0.12665999999999977
437.434 0.15332999999999997
437.739 0.15332999999999997
438.045 0.10665999999999976
438.352 0.13332999999999995
438.656 0.1033299999999997
438.963 0.13332999999999995
439.269 0.14332999999999974
439.574 0.10999999999999988
439.88 0.1033299999999997
440.184 0.12665999999999977
440.491 0.12665999999999977
440.797 0.1299999999999999
441.102 0.11665999999999999
441.408 0.08332999999999968
441.715 0.08332999999999968
442.019 0.10665999999999976
442.325 0.13666
442.63 0.10665999999999976
442.936 0.1299999999999999
443.242 0.1033299999999997
443.547 0.11332999999999993
443.853 0.12332999999999972
444.157 0.11999999999999966
444.464 0.11332999999999993
444.77 0.11999999999999966
445.074 0.12332999999999972
445.38 0.07999999999999963
445.685 0.11332999999999993
445.991 0.12332999999999972
446.297 0.10665999999999976
446.601 0.12665999999999977
446.908 0.08665999999999974
447.212 0.1299999999999999
447.518 0.13666
447.822 0.11332999999999993
448.128 0.10999999999999988
448.434 0.12665999999999977
448.738 0.12665999999999977
449.045 0.08999999999999986
449.349 0.09665999999999997
449.655 0.10665999999999976
449.959 0.12332999999999972
450.265 0.11665999999999999
450.569 0.09999999999999964
450.875 0.10665999999999976
451.181 0.11665999999999999
451.485 0.11332999999999993
451.791 0.11332999999999993
452.095 0.11332999999999993
452.401 0.05999999999999961
452.705 0.08665999999999974
453.011 0.08999999999999986
453.315 0.08332999999999968
453.621 0.09665999999999997
453.925 0.1033299999999997
454.231 0.09999999999999964
454.535 0.07665999999999995
454.841 0.09332999999999991
455.145 0.10665999999999976
455.451 0.1033299999999997
455.755 0.07999999999999963
456.061 0.08665999999999974
456.365 0.08665999999999974
456.671 0.07999999999999963
456.975 0.10665999999999976
457.28 0.08332999999999968
457.584 0.08665999999999974
457.89 0.08999999999999986
458.194 0.07999999999999963
458.5 0.10665999999999976
458.804 0.08332999999999968
459.109 0.07665999999999995
459.413 0.05999999999999961
459.719 0.08999999999999986
460.023 0.06332999999999966
460.328 0.08665999999999974
460.632 0.07999999999999963
460.936 0.07665999999999995
461.242 0.08665999999999974
461.545 0.07999999999999963
461.851 0.0733299999999999
462.155 0.08665999999999974
462.46 0.07665999999999995
462.764 0.09665999999999997
463.07 0.08332999999999968
463.373 0.07999999999999963
463.677 0.08999999999999986
463.983 0.11332999999999993
464.286 0.09332999999999991
464.592 0.08665999999999974
464.896 0.09999999999999964
465.199 0.06665999999999972
465.505 0.08332999999999968
465.808 0.07665999999999995
466.114 0.09332999999999991
466.417 0.11665999999999999
466.723 0.08665999999999974
467.026 0.0733299999999999
467.33 0.09665999999999997
467.635 0.07665999999999995
467.939 0.08999999999999986
468.242 0.05665999999999993
468.548 0.05332999999999988
468.851 0.08665999999999974
469.157 0.07665999999999995
469.46 0.08332999999999968
469.764 0.08999999999999986
470.069 0.1033299999999997
470.373 0.08999999999999986
470.676 0.09332999999999991
470.981 0.10665999999999976
471.285 0.0733299999999999
471.59 0.09332999999999991
471.894 0.08332999999999968
472.197 0.08665999999999974
472.502 0.09665999999999997
472.806 0.08999999999999986
473.109 0.08332999999999968
473.414 0.07999999999999963
473.718 0.09999999999999964
474.021 0.09332999999999991
474.326 0.09665999999999997
474.629 0.1299999999999999
474.933 0.09665999999999997
475.238 0.09665999999999997
475.541 0.1033299999999997
475.844 0.09999999999999964
476.15 0.08999999999999986
476.453 0.11999999999999966
476.756 0.10999999999999988
477.061 0.11999999999999966
477.364 0.16332999999999975
477.668 0.21333000000000002
477.971 0.21665999999999963
478.276 0.2533299999999996
478.579 0.28332999999999986
478.882 0.3099999999999996
479.187 0.30665999999999993
479.49 0.3433299999999999
479.793 0.28332999999999986
480.099 0.3099999999999996
480.402 0.2866599999999999
480.705 0.31332999999999966
481.008 0.23999999999999977
481.313 0.23665999999999965
481.616 0.1666599999999998
481.919 0.12665999999999977
482.222 0.09999999999999964
482.527 0.11332999999999993
482.83 0.10665999999999976
483.133 0.1033299999999997
483.436 0.11665999999999999
483.741 0.09665999999999997
484.044 0.09665999999999997
484.347 0.11332999999999993
484.65 0.05999999999999961
484.955 0.08999999999999986
485.258 0.09999999999999964
485.56 0.11665999999999999
485.863 0.08332999999999968
486.168 0.11999999999999966
486.471 0.08665999999999974
486.774 0.10999999999999988
487.077 0.09999999999999964
487.38 0.09999999999999964
487.685 0.09999999999999964
487.987 0.06999999999999984
488.29 0.09332999999999991
488.593 0.08665999999999974
488.898 0.09665999999999997
489.201 0.06332999999999966
489.503 0.09665999999999997
489.806 0.08999999999999986
490.109 0.1299999999999999
490.414 0.11332999999999993
490.716 0.07665999999999995
491.019 0.08418543877141005
491.322 0.08431503246011518
491.624 0.08413317609305437
491.927 0.08407833258537556
492.232 0.08392989708217069
492.535 0.08354287574068486
492.837 0.08370055778268659
493.14 0.08665999999999974
493.442 0.07999999999999963
493.745 0.07665999999999995
494.05 0.07999999999999963
494.352 0.06999999999999984
494.655 0.08665999999999974
494.958 0.05999999999999961
495.26 0.07999999999999963
495.563 0.06999999999999984
495.865 0.06999999999999984
496.17 0.07665999999999995
496.472 0.07665999999999995
496.775 0.06999999999999984
497.077 0.07999999999999963
497.38 0.06665999999999972
497.682 0.04999999999999982
497.985 0.07665999999999995
498.287 0.06665999999999972
498.592 0.08999999999999986
498.894 0.0733299999999999
499.197 0.06999999999999984
499.499 0.08332999999999968
499.802 0.08332999999999968
500.104 0.05665999999999993
500.406 0.06999999999999984
500.709 0.09332999999999991
501.011 0.05332999999999988
501.316 0.0733299999999999
501.618 0.05665999999999993
501.92 0.06999999999999984
502.223 0.05999999999999961
502.525 0.06999999999999984
502.827 0.06665999999999972
503.13 0.06332999999999966
503.432 0.06999999999999984
503.734 0.05999999999999961
503.97950000000003 0.06906935060239643
504.284 0.07573435060239657
504.588 0.06906935060239643
504.892 0.060739350602396255
505.198 0.06239935060239647
505.50300000000004 0.07406935060239654
505.807 0.06573435060239656
506.1115 0.05906935060239642
506.41700000000003 0.07073435060239645
506.721 0.060734350602396445
507.025 0.06906935060239643
507.3295 0.05740435060239639
507.6345 0.06239935060239647
507.9385 0.06906935060239643
508.243 0.07406935060239632
508.5475 0.05906935060239642
508.8525 0.060734350602396445
509.1565 0.06406935060239653
509.4605 0.07406935060239654
509.7645 0.06240435060239628
510.06899999999996 0.07073435060239645
510.374 0.05573435060239655
510.678 0.07573435060239635
510.98199999999997 0.06073935060239648
511.286 0.07406935060239632
511.59000000000003 0.07073935060239626
511.89599999999996 0.07240435060239629
512.2 0.054069350602396524
512.504 0.07573435060239657
512.808 0.06406935060239631
513.1115 0.07240435060239629
513.4165 0.06697749321522
513.7205 0.06699052706418122
514.0245 0.06705054173009765
514.3285 0.0636404950842077
514.6324999999999 0.06873978824658049
514.9375 0.06698070032227325
515.2415000000001 0.07031438776930214
515.5455 0.060734350602396445
515.8495 0.06406935060239631
516.1534999999999 0.06239935060239647
516.4575 0.07240435060239629
516.7625 0.06573435060239634
517.066 0.06406935060239653
517.3689999999999 0.060739350602396255
517.673 0.08073435060239646
517.9770000000001 0.06906935060239643
518.281 0.0674043506023964
518.585 0.05573435060239655
518.889 0.07739935060239637
519.193 0.06906935060239643
519.4970000000001 0.05239935060239646
519.8009999999999 0.06406935060239631
520.1045 0.08740435060239642
520.4085 0.06906935060239643
520.712 0.0540693506023963
521.017 0.07406935060239654
521.3205 0.07240435060239651
521.6234999999999 0.07406935060239654
521.9275 0.07406935060239632
522.078 0.07406935060239632
522.3815 0.07240435060239651
522.6855 0.04740435060239638
522.989 0.06573435060239634
523.2925 0.06573935060239637
523.5975000000001 0.06906935060239643
523.9010000000001 0.07240435060239651
524.2049999999999 0.08073435060239646
524.5070000000001 0.06239935060239647
524.8109999999999 0.062404350602396505
525.115 0.07739935060239637
525.418 0.07406935060239654
525.722 0.05906935060239642
526.0255 0.06240435060239628
526.329 0.054069350602396524
526.6324999999999 0.07240435060239629
526.9365 0.0674043506023964
527.2394999999999 0.06906935060239643
527.5435 0.06906935060239643
527.8465 0.06739935060239659
528.1505 0.06906935060239643
528.4535 0.06573935060239637
528.7565 0.07406935060239632
529.0595 0.06406935060239653
529.3634999999999 0.07906935060239643
529.6665 0.08406935060239633
529.9705 0.07239935060239648
530.2735 0.06573435060239634
530.576 0.062404350602396505
530.8795 0.06906935060239643
531.184 0.08573935060239639
531.4875 0.07573935060239638
531.7909999999999 0.07406935060239654
532.094 0.07906935060239643
532.3969999999999 0.05740435060239639
532.7 0.07406935060239632
533.0029999999999 0.0540693506023963
533.307 0.0674043506023964
533.61 0.06239935060239647
533.9125 0.07239935060239648
534.2155 0.07739935060239637
534.519 0.050734350602396436
534.8225 0.08073435060239646
535.1255000000001 0.06406237881078851
535.4275 0.07573995151395489
535.7315000000001 0.06407655472106126
536.0345 0.07083663976956515
536.3375000000001 0.07580163833667035
536.6395 0.07226262401310406
536.9435000000001 0.06572851359072877
537.2465 0.06906935060239643
537.5495000000001 0.08073435060239646
537.8515 0.08906935060239644
538.155 0.07573935060239638
538.458 0.07406935060239654
538.761 0.07573435060239635
539.0635 0.06240435060239628
539.367 0.06406935060239631
539.6700000000001 0.07240435060239629
539.973 0.0674043506023964
540.2750000000001 0.07906935060239643
540.578 0.0674043506023964
540.8810000000001 0.07573935060239638
541.184 0.0824043506023963
541.4865 0.07573435060239657
541.7895 0.0674043506023964
542.0925 0.06906935060239643
542.2429999999999 0.08406935060239633
542.5450000000001 0.08740435060239642
542.847 0.07740435060239641
543.1500000000001 0.06906935060239643
543.452 0.07073935060239649
543.7550000000001 0.07573935060239638
544.058 0.08073435060239646
544.3599999999999 0.07406935060239632
544.663 0.0674043506023964
544.966 0.07740435060239641
545.269 0.08740435060239642
545.5709999999999 0.0674043506023964
545.874 0.09740435060239643
546.177 0.10906935060239646
546.4784999999999 0.08406935060239633
546.7815 0.07906935060239643
547.0844999999999 0.0873993506023966
547.3855 0.09573435060239636
547.6885 0.09573435060239659
547.9915 0.06906935060239643
548.2925 0.09573435060239636
548.5955 0.10073935060239629
548.8985 0.0873993506023966
549.2005 0.09739935060239639
549.5035 0.09739935060239639
549.806 0.12240435060239656
550.108 0.12239935060239653
550.4105 0.11573935060239642
550.7125 0.11240435060239633
551.014 0.1057393506023964
551.317 0.11073435060239649
551.619 0.11906935060239647
551.921 0.11740435060239644
552.2239999999999 0.11073435060239649
552.5260000000001 0.11240435060239633
552.8285 0.10406935060239657
553.13 0.11740435060239644
553.432 0.09906935060239645
553.7345 0.12240435060239656
554.0360000000001 0.09406935060239656
554.3389999999999 0.09740435060239643
554.6415 0.10740435060239643
554.943 0.11739935060239641
555.2445 0.11240435060239633
555.5465 0.11073435060239649
555.8489999999999 0.0824043506023963
556.1514999999999 0.1057393506023964
556.453 0.09406935060239656
556.7555 0.08406935060239633
557.0564999999999 0.10073435060239648
557.3585 0.07573435060239657
557.6614999999999 0.08906935060239644
557.9625 0.08073435060239646
558.2655 0.08906935060239644
558.567 0.09406935060239656
558.8685 0.08740435060239642
559.1700000000001 0.09573435060239636
559.472 0.06906935060239643
559.774 0.08739935060239638
560.076 0.09906935060239645
560.379 0.08406935060239633
560.679 0.08740435060239642
560.9815000000001 0.09240435060239631
561.283 0.07073935060239649
561.585 0.08239935060239649
561.887 0.060734350602396445
562.188 0.08240435060239652
562.337 0.0674043506023964
562.64 0.06739935060239659
562.941 0.08906935060239644
563.2429999999999 0.07406935060239632
563.544 0.09240435060239653
563.846 0.0674043506023964
564.148 0.0824043506023963
564.4495 0.06739935060239659
564.752 0.08406935060239655
565.0519999999999 0.06573435060239634
565.3545 0.08406935060239655
565.656 0.07406935060239654
565.958 0.07406935060239632
566.2584999999999 0.05740435060239639
566.5605 0.07906935060239643
566.8615 0.06573935060239637
567.164 0.06573435060239656
567.4645 0.07406935060239632
567.7665 0.07906935060239643
568.0675 0.06240435060239628
568.3685 0.07906935060239643
568.6700000000001 0.07406935060239654
568.971 0.06739935060239637
569.2735 0.06906935060239643
569.5745 0.07406935060239632
569.8755 0.06906935060239643
570.1765 0.05906935060239642
570.479 0.07739935060239637
570.78 0.06573435060239634
571.081 0.06739935060239659
571.3820000000001 0.06406935060239653
571.684 0.07240435060239651
571.9839999999999 0.06073935060239648
572.285 0.08906935060239644
572.587 0.062404350602396505
572.8879999999999 0.06406935060239631
573.1890000000001 0.08240435060239652
573.49 0.06240435060239628
573.7925 0.08573435060239636
574.0925 0.07740435060239641
574.3934999999999 0.07740435060239641
574.695 0.05573435060239655
574.995 0.0674043506023964
575.297 0.06573935060239637
575.598 0.06739935060239659
575.899 0.07073935060239649
576.2 0.06573435060239634
576.5005 0.07073935060239626
576.8015 0.06406935060239653
577.1025 0.06573435060239634
577.4045 0.07906935060239643
577.7045 0.07573935060239638
578.0055 0.07573435060239657
578.307 0.07406935060239632
578.607 0.0807393506023965
578.9075 0.0674043506023964
579.2094999999999 0.07406935060239632
579.5095 0.06906935060239643
579.811 0.06906935060239643
580.1120000000001 0.06406935060239631
580.412 0.06406935060239653
580.7135000000001 0.07073935060239649
581.014 0.06906935060239643
581.3140000000001 0.06906935060239643
581.616 0.06906935060239643
581.9165 0.07240435060239651
582.065 0.07573435060239657
582.366 0.07573435060239657
582.6669999999999 0.06406935060239631
582.9675 0.07406935060239632
583.268 0.0674043506023964
583.569 0.06739935060239659
583.8695 0.06739935060239637
584.1700000000001 0.06406935060239631
584.4704999999999 0.0674043506023964
584.7705 0.05573435060239655
585.072 0.08406935060239633
585.3715 0.05906935060239642
585.6725 0.05573435060239633
585.9735000000001 0.06250960470493976
586.2735 0.07744653360975488
586.5740000000001 0.06080927053236988
586.8745 0.0657698114304545
587.1755 0.06420221815373665
587.4745 0.06753024923970134
587.7764999999999 0.06259836527759159
588.0765 0.06239935060239647
588.3765000000001 0.06906935060239643
588.677 0.08073435060239646
588.9775 0.052404350602396496
589.2775 0.060734350602396445
589.578 0.062404350602396505
589.879 0.07240435060239651
590.1790000000001 0.04740435060239638
590.4784999999999 0.07073935060239649
590.779 0.06573935060239637
591.0795 0.06573435060239656
591.38 0.06239935060239647
591.679 0.07740435060239641
591.98 0.060734350602396445
592.28 0.07073435060239645
592.5799999999999 0.06240435060239628
592.881 0.06406935060239631
593.1800000000001 0.07073435060239645
593.4815 0.07740435060239641
593.781 0.07906935060239643
594.081 0.07240435060239651
594.3805 0.050734350602396436
594.6814999999999 0.06906935060239643
594.981 0.05573435060239633
595.2815 0.08239935060239649
595.5805 0.06906935060239643
595.8820000000001 0.0674043506023964
596.181 0.07073435060239645
596.4815000000001 0.06573935060239637
596.7805 0.06239935060239647
597.0805 0.06906935060239643
597.3815 0.06573935060239637
597.6814999999999 0.07073935060239649
597.9805 0.06906935060239643
598.2805000000001 0.06406935060239631
598.5795 0.06739935060239637
598.8810000000001 0.07740435060239641
599.1804999999999 0.07573935060239638
599.4805 0.07073435060239645
599.7795 0.060734350602396445
600.0795 0.07906935060239643
600.3795 0.054069350602396524
600.6795 0.0807393506023965
600.979 0.07739935060239637
601.279 0.07573935060239638
601.4275 0.07240435060239651
601.7265 0.08573935060239639
602.0274999999999 0.08740435060239642
602.3265 0.07240435060239651
602.6265000000001 0.07239935060239648
602.9255 0.0907393506023965
603.2245 0.06573935060239637
603.5245 0.08073435060239646
603.8245 0.07073435060239645
604.1245 0.09240435060239631
604.4235 0.08239935060239649
604.7235000000001 0.07740435060239641
605.0225 0.07406935060239632
605.3225 0.07740435060239641
605.6215 0.07073435060239645
605.9205 0.0824043506023963
606.2215 0.06573435060239634
606.5205000000001 0.08739935060239638
606.8205 0.08240435060239652
607.1189999999999 0.07240435060239651
607.419 0.08406935060239655
607.7180000000001 0.09573435060239636
608.0165 0.07573935060239638
608.3164999999999 0.09073935060239628
608.6155 0.08406935060239633
608.9159999999999 0.08406935060239633
609.215 0.07573435060239657
609.514 0.08073435060239646
609.814 0.08906935060239644
610.1125 0.09406935060239656
610.412 0.07406935060239654
610.711 0.09240435060239653
611.01 0.10406935060239635
611.31 0.09073435060239647
611.608 0.10406935060239635
611.9079999999999 0.08740435060239642
612.207 0.09240435060239653
612.5065 0.10073435060239648
612.806 0.08406935060239633
613.105 0.0923993506023965
613.4035 0.0923993506023965
613.703 0.09906935060239645
614.002 0.08406935060239633
614.3005 0.08073435060239646
614.6005 0.09073435060239647
614.899 0.08740435060239642
615.1985 0.08573935060239639
615.497 0.0824043506023963
615.7955 0.08406935060239655
616.0955 0.09073435060239647
616.394 0.08906935060239644
616.6925 0.09406935060239656
616.992 0.09406935060239634
617.2905000000001 0.0923993506023965
617.5895 0.0674043506023964
617.8885 0.08739935060239638
618.1875 0.08073435060239646
618.4855 0.0957393506023964
618.7855 0.07240435060239629
619.0835 0.07406935060239654
619.3824999999999 0.07406935060239654
619.6815 0.07740435060239641
619.9804999999999 0.07073435060239645
620.2785 0.07406935060239654
620.577 0.06573435060239656
620.7255 0.07073435060239645
621.0245 0.05906935060239642
621.3235 0.08240435060239652
621.6215 0.06406935060239653
621.9205 0.0674043506023964
622.2195 0.06406935060239631
622.5174999999999 0.07906935060239643
622.8175 0.08073435060239646
623.1155 0.08239935060239649
623.4135 0.06073935060239648
623.7125 0.07573935060239638
624.0115 0.07073935060239649
624.3095000000001 0.07073435060239645
624.6085 0.0674043506023964
624.9065 0.08573435060239658
625.2055 0.07406935060239632
625.504 0.06406935060239631
625.8025 0.06906935060239643
626.1015 0.09240435060239653
626.399 0.07573935060239638
626.697 0.06573435060239656
626.9955 0.06906935060239643
627.2945 0.06573935060239637
627.5930000000001 0.0674043506023964
627.8910000000001 0.07240435060239651
628.1890000000001 0.07073435060239645
628.488 0.05740435060239639
628.7864999999999 0.07573435060239635
629.085 0.06906935060239643
629.383 0.07740435060239641
629.681 0.06073935060239648
629.979 0.04740435060239638
630.277 0.07906935060239643
630.575 0.06406935060239631
630.8735 0.07406935060239632
631.173 0.07240435060239651
631.471 0.08406935060239633
631.769 0.07406935060239654
632.067 0.08740435060239642
632.365 0.07906935060239643
632.663 0.06906935060239643
632.961 0.07240435060239629
633.259 0.07406935060239632
633.557 0.0674043506023964
633.855 0.060734350602396445
634.154 0.07073435060239645
634.452 0.07240435060239629
634.749 0.07239935060239648
635.047 0.07906935060239643
635.345 0.07073435060239645
635.644 0.07406935060239632
635.942 0.06573435060239634
636.24 0.08740435060239642
636.5375 0.06906935060239643
636.8344999999999 0.07239935060239648
637.1324999999999 0.07740435060239641
637.4315 0.08406935060239655
637.7294999999999 0.07739935060239637
638.0275 0.06906935060239643
638.3240000000001 0.07073935060239626
638.6215 0.060734350602396445
638.9195 0.06573435060239656
639.2185 0.06239935060239647
639.5165 0.07740435060239641
639.6645000000001 0.08740435060239642
639.9615 0.08073435060239646
640.2584999999999 0.07240435060239629
640.5565 0.07239935060239648
640.8544999999999 0.05740435060239639
641.1525 0.07739935060239637
641.4490000000001 0.0807393506023965
641.7475 0.07573435060239657
642.0455 0.06406935060239653
642.3435 0.08573435060239658
642.6400000000001 0.08573435060239658
642.9375 0.06239935060239647
643.2355 0.07240435060239629
643.533 0.09573435060239636
643.8305 0.08073435060239646
644.1285 0.08406935060239655
644.4259999999999 0.0674043506023964
644.724 0.07573935060239638
645.0215000000001 0.07906935060239643
645.318 0.08073935060239627
645.6155 0.07073935060239626
645.913 0.06406935060239653
646.211 0.07740435060239641
646.5074999999999 0.09406935060239634
646.8050000000001 0.07073435060239645
647.104 0.06906935060239643
647.4010000000001 0.0824043506023963
647.698 0.0807393506023965
647.995 0.08573435060239658
648.293 0.09073435060239647
648.5889999999999 0.0773993506023966
648.887 0.08406935060239655
649.184 0.07406935060239654
649.482 0.08073435060239646
649.778 0.07740435060239641
649.784 0.06480870120479296
650.084 0.10147870120479294
650.383 0.09147870120479315
650.683 0.0948087012047932
650.982 0.07813870120479324
651.282 0.07813870120479324
651.581 0.09147870120479315
651.881 0.08480870120479297
652.182 0.10147870120479294
652.481 0.08147870120479292
652.781 0.10813870120479305
653.08 0.11147870120479317
653.38 0.0948087012047932
653.679 0.07813870120479324
653.978 0.11480870120479322
654.278 0.10147870120479294
654.577 0.11147870120479317
654.876 0.10147870120479294
655.176 0.11147870120479317
655.475 0.11813870120479328
655.774 0.10813870120479305
656.073 0.11813870120479328
656.373 0.12147870120479295
656.672 0.11480870120479322
656.971 0.14147870120479297
657.271 0.1381387012047933
657.57 0.11813870120479328
657.869 0.12813870120479307
658.168 0.161478701204793
658.467 0.12480870120479301
658.767 0.14147870120479297
659.066 0.14147870120479297
659.365 0.12480870120479301
659.664 0.1381387012047933
659.963 0.1381387012047933
660.263 0.14480870120479303
660.562 0.15480870120479326
660.861 0.11813870120479328
661.158 0.14147870120479297
661.457 0.14147870120479297
661.756 0.11480870120479322
662.055 0.12147870120479295
662.354 0.13480870120479324
662.653 0.08813870120479303
662.952 0.10147870120479294
663.251 0.13480870120479324
663.551 0.11813870120479328
663.85 0.10480870120479299
664.149 0.08147870120479292
664.448 0.12147870120479295
664.747 0.08813870120479303
665.046 0.12813870120479307
665.345 0.09813870120479326
665.644 0.10813870120479305
665.943 0.09813870120479326
666.24 0.10480870120479299
666.538 0.12147870120479295
666.837 0.09147870120479315
667.136 0.10480870120479299
667.435 0.08147870120479292
667.734 0.07480870120479319
668.033 0.08147870120479292
668.332 0.12147870120479295
668.631 0.11147870120479317
668.93 0.0948087012047932
669.228 0.0948087012047932
669.525 0.07147870120479313
669.824 0.08813870120479303
670.123 0.07813870120479324
670.422 0.06813870120479301
670.721 0.06813870120479301
671.019 0.07147870120479313
671.318 0.0948087012047932
671.617 0.07813870120479324
671.914 0.08813870120479303
672.212 0.06813870120479301
672.511 0.09813870120479326
672.81 0.06480870120479296
673.109 0.0948087012047932
673.407 0.08480870120479297
673.706 0.06813870120479301
674.003 0.07813870120479324
674.302 0.06813870120479301
674.6 0.06480870120479296
674.899 0.08147870120479292
675.198 0.08813870120479303
675.496 0.0614787012047929
675.793 0.08813870120479303
676.091 0.048138701204792994
676.39 0.07813870120479324
676.689 0.07813870120479324
676.987 0.06813870120479301
677.286 0.07480870120479319
677.582 0.08480870120479297
677.881 0.08147870120479292
678.18 0.06813870120479301
678.478 0.07813870120479324
678.777 0.0614787012047929
679.075 0.08147870120479292
679.372 0.06480870120479296
679.67 0.07813870120479324
679.969 0.07813870120479324
680.267 0.08813870120479303
680.566 0.07480870120479319
680.862 0.08147870120479292
681.161 0.07480870120479319
681.459 0.09813870120479326
681.758 0.09147870120479315
682.054 0.07813870120479324
682.352 0.0614787012047929
682.651 0.07147870120479313
682.949 0.06480870120479296
683.248 0.06480870120479296
683.544 0.05480870120479317
683.842 0.058138701204793225
684.141 0.08813870120479303
684.439 0.08147870120479292
684.735 0.058138701204793225
685.034 0.07480870120479319
685.332 0.07813870120479324
685.63 0.0614787012047929
685.927 0.0948087012047932
686.225 0.07147870120479313
686.523 0.05480870120479317
686.822 0.07147870120479313
687.118 0.06480870120479296
687.416 0.08147870120479292
687.714 0.08147870120479292
688.013 0.048138701204792994
688.309 0.0614787012047929
688.607 0.09147870120479315
688.905 0.07813870120479324
689.201 0.05480870120479317
689.5 0.06813870120479301
689.798 0.07480870120479319
690.096 0.0948087012047932
690.392 0.07813870120479324
690.69 0.05480870120479317
690.988 0.09147870120479315
691.284 0.07813870120479324
691.583 0.07480870120479319
691.881 0.06480870120479296
692.177 0.0614787012047929
692.475 0.08147870120479292
692.773 0.08813870120479303
693.071 0.08480870120479297
693.367 0.07147870120479313
693.665 0.07813870120479324
693.963 0.058138701204793225
694.259 0.07147870120479313
694.557 0.07147870120479313
694.855 0.07147870120479313
695.151 0.08813870120479303
695.449 0.08480870120479297
695.747 0.07480870120479319
696.043 0.07147870120479313
696.341 0.07480870120479319
696.639 0.07480870120479319
696.935 0.07480870120479319
697.233 0.08147870120479292
697.531 0.07813870120479324
697.827 0.06813870120479301
698.125 0.07813870120479324
698.421 0.0614787012047929
698.719 0.10813870120479305
699.016 0.08480870120479297
699.312 0.07813870120479324
699.61 0.07813870120479324
699.908 0.08480870120479297
700.204 0.07147870120479313
700.502 0.06813870120479301
700.797 0.07147870120479313
701.095 0.06480870120479296
701.393 0.06813870120479301
701.689 0.07147870120479313
701.987 0.07480870120479319
702.284 0.04480870120479294
702.58 0.051478701204793115
702.878 0.07480870120479319
703.174 0.07480870120479319
703.471 0.06813870120479301
703.769 0.0948087012047932
704.065 0.06480870120479296
704.362 0.07147870120479313
704.658 0.09147870120479315
704.956 0.07480870120479319
705.252 0.06813870120479301
705.549 0.048138701204792994
705.847 0.06480870120479296
706.143 0.08147870120479292
706.44 0.07147870120479313
706.736 0.048138701204792994
707.033 0.08147870120479292
707.329 0.08813870120479303
707.627 0.0614787012047929
707.924 0.07480870120479319
708.22 0.06813870120479301
708.517 0.06480870120479296
708.813 0.06813870120479301
709.11 0.08147870120479292
709.406 0.07480870120479319
709.703 0.07147870120479313
709.999 0.07480870120479319
710.296 0.05480870120479317
710.592 0.06480870120479296
710.889 0.07480870120479319
711.185 0.07813870120479324
711.482 0.0614787012047929
711.78 0.058138701204793225
712.075 0.07813870120479324
712.373 0.07147870120479313
712.668 0.07813870120479324
712.966 0.07147870120479313
713.261 0.06480870120479296
713.558 0.05480870120479317
713.854 0.05480870120479317
714.151 0.0614787012047929
714.446 0.051478701204793115
714.744 0.07813870120479324
715.039 0.07480870120479319
715.337 0.07480870120479319
715.632 0.05480870120479317
715.929 0.07480870120479319
716.224 0.07813870120479324
716.522 0.06813870120479301
716.817 0.07480870120479319
717.112 0.08147870120479292
717.41 0.07147870120479313
717.705 0.0614787012047929
718.002 0.07480870120479319
718.297 0.0614787012047929
718.595 0.08480870120479297
718.89 0.06813870120479301
719.187 0.07147870120479313
719.482 0.07813870120479324
719.779 0.07813870120479324
720.075 0.08480870120479297
720.372 0.08480870120479297
720.667 0.07480870120479319
720.962 0.0614787012047929
721.259 0.051478701204793115
721.554 0.07813870120479324
721.852 0.08147870120479292
722.147 0.04147870120479333
722.444 0.07480870120479319
722.739 0.08813870120479303
723.034 0.058138701204793225
723.331 0.07813870120479324
723.626 0.08480870120479297
723.923 0.06480870120479296
724.218 0.06480870120479296
724.515 0.08480870120479297
724.81 0.07480870120479319
725.105 0.07147870120479313
725.402 0.07480870120479319
725.697 0.06813870120479301
725.994 0.08147870120479292
726.289 0.08147870120479292
726.584 0.058138701204793225
726.881 0.0614787012047929
727.176 0.058138701204793225
727.471 0.06480870120479296
727.768 0.058138701204793225
728.063 0.06480870120479296
728.36 0.06480870120479296
728.655 0.058138701204793225
728.95 0.07813870120479324
729.247 0.08147870120479292
729.541 0.09147870120479315
729.836 0.0614787012047929
730.133 0.08147870120479292
730.428 0.09813870120479326
730.725 0.07480870120479319
731.02 0.04480870120479294
731.315 0.07480870120479319
731.611 0.048138701204792994
731.906 0.08147870120479292
732.201 0.06813870120479301
732.498 0.06480870120479296
732.792 0.058138701204793225
733.087 0.0614787012047929
733.384 0.07480870120479319
733.679 0.09147870120479315
733.973 0.0948087012047932
734.27 0.07813870120479324
734.565 0.06480870120479296
734.86 0.06480870120479296
735.156 0.0614787012047929
735.451 0.06480870120479296
735.746 0.06480870120479296
736.04 0.058138701204793225
736.337 0.06813870120479301
736.632 0.06813870120479301
736.926 0.09147870120479315
737.223 0.05480870120479317
737.517 0.08480870120479297
737.812 0.0614787012047929
738.109 0.07147870120479313
738.403 0.051478701204793115
738.698 0.07147870120479313
738.992 0.07480870120479319
739.289 0.05480870120479317
739.583 0.07480870120479319
739.878 0.07813870120479324
740.175 0.0614787012047929
740.469 0.05480870120479317
740.764 0.08813870120479303
741.058 0.0614787012047929
741.355 0.08480870120479297
741.649 0.058138701204793225
741.944 0.07813870120479324
742.238 0.07147870120479313
742.534 0.08147870120479292
742.829 0.06480870120479296
743.123 0.07147870120479313
743.418 0.058138701204793225
743.714 0.058138701204793225
744.009 0.07480870120479319
744.303 0.07480870120479319
744.597 0.07147870120479313
744.894 0.08147870120479292
745.188 0.058138701204793225
745.482 0.08480870120479297
745.777 0.051478701204793115
746.071 0.05480870120479317
746.367 0.05480870120479317
746.662 0.07813870120479324
746.956 0.08480870120479297
747.25 0.051478701204793115
747.545 0.07147870120479313
747.841 0.07480870120479319
748.135 0.08147870120479292
748.429 0.06813870120479301
748.724 0.0614787012047929
749.018 0.06480870120479296
749.314 0.07813870120479324
749.608 0.06813870120479301
749.903 0.058138701204793225
750.197 0.09147870120479315
750.491 0.06813870120479301
750.787 0.08480870120479297
751.081 0.048138701204792994
751.376 0.0614787012047929
751.67 0.09147870120479315
751.964 0.05480870120479317
752.258 0.07480870120479319
752.554 0.07147870120479313
752.848 0.07480870120479319
753.142 0.06480870120479296
753.436 0.08480870120479297
753.731 0.07147870120479313
754.025 0.03480870120479315
754.319 0.0614787012047929
754.615 0.06813870120479301
754.909 0.06480870120479296
755.203 0.07147870120479313
755.497 0.06813870120479301
755.791 0.058138701204793225
756.085 0.07480870120479319
756.379 0.05480870120479317
756.675 0.08147870120479292
756.969 0.08147870120479292
757.263 0.06480870120479296
757.557 0.07147870120479313
757.851 0.06813870120479301
758.145 0.0614787012047929
758.439 0.09147870120479315
758.733 0.04480870120479294
759.026 0.08147870120479292
759.322 0.0614787012047929
759.616 0.05480870120479317
759.91 0.07480870120479319
760.204 0.07147870120479313
760.498 0.08480870120479297
760.792 0.05480870120479317
761.086 0.048138701204792994
761.379 0.06480870120479296
761.673 0.08480870120479297
761.967 0.06480870120479296
762.261 0.06480870120479296
762.555 0.05480870120479317
762.85 0.06813870120479301
763.144 0.058138701204793225
763.438 0.058138701204793225
763.732 0.08813870120479303
764.026 0.07480870120479319
764.319 0.058138701204793225
764.613 0.05480870120479317
764.907 0.07147870120479313
765.2 0.06813870120479301
765.494 0.06813870120479301
765.788 0.07147870120479313
766.082 0.07480870120479319
766.375 0.08147870120479292
766.669 0.06480870120479296
766.963 0.06813870120479301
767.256 0.07480870120479319
767.55 0.06480870120479296
767.843 0.051478701204793115
768.137 0.06813870120479301
768.431 0.06813870120479301
768.724 0.08147870120479292
769.018 0.07480870120479319
769.311 0.048138701204792994
769.605 0.058138701204793225
769.899 0.06813870120479301
770.192 0.06813870120479301
770.486 0.07480870120479319
770.779 0.06480870120479296
771.073 0.08147870120479292
771.366 0.058138701204793225
771.66 0.0614787012047929
771.953 0.08480870120479297
772.247 0.07813870120479324
772.54 0.08147870120479292
772.834 0.07813870120479324
773.127 0.0948087012047932
773.421 0.06813870120479301
773.714 0.07813870120479324
774.007 0.05480870120479317
774.301 0.10480870120479299
774.594 0.06813870120479301
774.888 0.08147870120479292
775.181 0.04480870120479294
775.474 0.06480870120479296
775.768 0.06813870120479301
776.061 0.058138701204793225
776.355 0.06813870120479301
776.648 0.051478701204793115
776.941 0.051478701204793115
777.235 0.09813870120479326
777.528 0.08147870120479292
777.821 0.06480870120479296
778.112 0.0614787012047929
778.406 0.0614787012047929
778.699 0.058138701204793225
778.992 0.07813870120479324
779.286 0.06813870120479301
779.579 0.08147870120479292
779.872 0.05480870120479317
780.165 0.07147870120479313
780.458 0.0948087012047932
780.752 0.08480870120479297
781.045 0.0614787012047929
781.338 0.07147870120479313
781.629 0.08147870120479292
781.922 0.051478701204793115
782.216 0.07480870120479319
782.509 0.07813870120479324
782.802 0.08147870120479292
783.095 0.06813870120479301
783.388 0.07480870120479319
783.681 0.09147870120479315
783.974 0.06813870120479301
784.266 0.07480870120479319
784.559 0.07813870120479324
784.852 0.08813870120479303
785.145 0.07813870120479324
785.438 0.06813870120479301
785.731 0.07480870120479319
786.024 0.07480870120479319
786.315 0.07480870120479319
786.608 0.0614787012047929
786.901 0.058138701204793225
787.194 0.058138701204793225
787.487 0.06480870120479296
787.78 0.07813870120479324
788.073 0.07480870120479319
788.364 0.07813870120479324
788.657 0.06813870120479301
788.95 0.08147870120479292
789.243 0.06813870120479301
789.536 0.08147870120479292
789.829 0.06813870120479301
790.119 0.0614787012047929
790.412 0.07813870120479324
790.705 0.06813870120479301
790.998 0.07813870120479324
791.291 0.0948087012047932
791.582 0.06813870120479301
791.875 0.06480870120479296
792.168 0.06813870120479301
792.46 0.07480870120479319
792.753 0.06480870120479296
793.044 0.08480870120479297
793.337 0.06480870120479296
793.63 0.07813870120479324
793.922 0.06813870120479301
794.215 0.07813870120479324
794.506 0.07480870120479319
794.799 0.06480870120479296
795.091 0.07480870120479319
795.384 0.06480870120479296
795.675 0.07813870120479324
795.968 0.05480870120479317
796.26 0.07813870120479324
796.553 0.05480870120479317
796.846 0.06480870120479296
797.136 0.08147870120479292
797.429 0.0614787012047929
797.722 0.08147870120479292
798.014 0.07813870120479324
798.305 0.07813870120479324
798.598 0.07480870120479319
798.89 0.08147870120479292
799.183 0.06813870120479301
799.474 0.05480870120479317
799.766 0.07480870120479319
800.059 0.09147870120479315
800.349 0.06480870120479296
800.642 0.0614787012047929
800.934 0.0948087012047932
801.227 0.048138701204792994
801.518 0.07480870120479319
801.81 0.07480870120479319
802.103 0.07813870120479324
802.393 0.09813870120479326
802.686 0.07813870120479324
802.978 0.07480870120479319
803.271 0.07147870120479313
803.561 0.08480870120479297
803.853 0.06480870120479296
804.146 0.06813870120479301
804.436 0.06480870120479296
804.729 0.09147870120479315
805.021 0.08147870120479292
805.312 0.08480870120479297
805.604 0.07813870120479324
805.896 0.07147870120479313
806.187 0.06480870120479296
806.479 0.06480870120479296
806.772 0.04480870120479294
807.062 0.07480870120479319
807.354 0.0614787012047929
807.647 0.08813870120479303
807.937 0.0614787012047929
808.229 0.07813870120479324
808.522 0.06813870120479301
808.812 0.058138701204793225
809.104 0.08813870120479303
809.396 0.08813870120479303
809.687 0.058138701204793225
809.979 0.07480870120479319
810.271 0.08480870120479297
810.562 0.058138701204793225
810.854 0.09147870120479315
811.146 0.07147870120479313
811.436 0.04480870120479294
811.728 0.08147870120479292
812.019 0.06813870120479301
812.311 0.06480870120479296
812.603 0.0614787012047929
812.893 0.07147870120479313
813.185 0.05480870120479317
813.476 0.06813870120479301
813.768 0.07147870120479313
814.06 0.07480870120479319
814.35 0.07813870120479324
814.642 0.06813870120479301
814.932 0.07813870120479324
815.224 0.06480870120479296
815.516 0.06480870120479296
815.806 0.0614787012047929
816.099 0.08147870120479292
816.389 0.08480870120479297
816.681 0.09813870120479326
816.973 0.0614787012047929
817.263 0.06813870120479301
817.555 0.08480870120479297
817.845 0.0948087012047932
818.137 0.07813870120479324
818.427 0.07813870120479324
818.719 0.06813870120479301
819.011 0.0614787012047929
819.301 0.07147870120479313
819.593 0.07813870120479324
819.883 0.07147870120479313
820.174 0.07147870120479313
820.464 0.051478701204793115
820.756 0.07813870120479324
821.046 0.09147870120479315
821.338 0.07813870120479324
821.628 0.07147870120479313
821.92 0.06480870120479296
822.212 0.07480870120479319
822.502 0.07813870120479324
822.794 0.08147870120479292
823.083 0.08480870120479297
823.375 0.058138701204793225
823.665 0.08147870120479292
823.957 0.07480870120479319
824.247 0.07147870120479313
824.538 0.06480870120479296
824.828 0.06480870120479296
825.12 0.08480870120479297
825.41 0.08813870120479303
825.702 0.08147870120479292
825.991 0.0948087012047932
826.283 0.07813870120479324
826.573 0.05480870120479317
826.865 0.07147870120479313
827.154 0.058138701204793225
827.446 0.07813870120479324
827.736 0.07813870120479324
828.027 0.07480870120479319
828.317 0.08480870120479297
828.607 0.08147870120479292
828.898 0.08813870120479303
829.188 0.06813870120479301
829.48 0.08480870120479297
829.769 0.0614787012047929
830.061 0.04480870120479294
830.351 0.07480870120479319
830.642 0.07813870120479324
830.932 0.10147870120479294
831.223 0.0614787012047929
831.513 0.10480870120479299
831.802 0.06813870120479301
832.094 0.07480870120479319
832.384 0.08147870120479292
832.675 0.05480870120479317
832.965 0.07480870120479319
833.256 0.08813870120479303
833.546 0.08147870120479292
833.835 0.0614787012047929
834.127 0.06480870120479296
834.416 0.07147870120479313
834.708 0.08147870120479292
834.997 0.07813870120479324
835.289 0.03480870120479315
835.578 0.08147870120479292
835.867 0.04480870120479294
836.159 0.09147870120479315
836.448 0.058138701204793225
836.74 0.07147870120479313
837.029 0.08147870120479292
837.318 0.08813870120479303
837.61 0.09147870120479315
837.899 0.07813870120479324
838.189 0.08147870120479292
838.48 0.07813870120479324
838.769 0.07147870120479313
839.061 0.06480870120479296
839.35 0.08480870120479297
839.639 0.08480870120479297
839.93 0.06480870120479296
840.22 0.07480870120479319
840.509 0.08480870120479297
840.8 0.06480870120479296
841.09 0.07147870120479313
841.379 0.07480870120479319
841.67 0.07480870120479319
841.959 0.10147870120479294
842.249 0.06480870120479296
842.54 0.08147870120479292
842.829 0.07813870120479324
843.12 0.0614787012047929
843.409 0.09147870120479315
843.699 0.07813870120479324
843.99 0.058138701204793225
844.279 0.0948087012047932
844.568 0.05480870120479317
844.857 0.05480870120479317
845.148 0.08480870120479297
845.438 0.08813870120479303
845.727 0.07813870120479324
846.018 0.08147870120479292
846.307 0.08147870120479292
846.596 0.08813870120479303
846.887 0.06480870120479296
847.176 0.07813870120479324
847.465 0.06813870120479301
847.756 0.08480870120479297
848.045 0.09147870120479315
848.334 0.08147870120479292
848.623 0.0948087012047932
848.914 0.08813870120479303
849.203 0.08813870120479303
849.492 0.08480870120479297
849.781 0.08147870120479292
850.072 0.09147870120479315
850.361 0.058138701204793225
850.65 0.07813870120479324
850.941 0.06480870120479296
851.23 0.09147870120479315
851.519 0.08147870120479292
851.808 0.06480870120479296
852.099 0.08480870120479297
852.388 0.08147870120479292
852.677 0.08147870120479292
852.966 0.0948087012047932
853.257 0.07480870120479319
853.545 0.08813870120479303
853.834 0.07147870120479313
854.123 0.0948087012047932
854.412 0.08813870120479303
854.703 0.07480870120479319
854.992 0.10480870120479299
855.28 0.0948087012047932
855.569 0.05480870120479317
855.86 0.10480870120479299
856.149 0.06813870120479301
856.438 0.07147870120479313
856.726 0.09147870120479315
857.015 0.06480870120479296
857.306 0.07480870120479319
857.595 0.06480870120479296
857.883 0.10480870120479299
858.172 0.07480870120479319
858.461 0.07813870120479324
858.752 0.0948087012047932
859.04 0.07480870120479319
859.329 0.07813870120479324
859.618 0.06480870120479296
859.906 0.07813870120479324
860.197 0.08480870120479297
860.486 0.07147870120479313
860.774 0.09813870120479326
861.063 0.07813870120479324
861.352 0.07147870120479313
861.64 0.08813870120479303
861.931 0.08147870120479292
862.219 0.07813870120479324
862.508 0.06813870120479301
862.796 0.08813870120479303
863.085 0.09147870120479315
863.374 0.09147870120479315
863.662 0.06480870120479296
863.953 0.06480870120479296
864.241 0.048138701204792994
864.53 0.08480870120479297
864.818 0.07813870120479324
865.107 0.08813870120479303
865.395 0.07147870120479313
865.684 0.09147870120479315
865.972 0.07147870120479313
866.263 0.07147870120479313
866.551 0.07813870120479324
866.84 0.06480870120479296
867.128 0.09147870120479315
867.416 0.10147870120479294
867.705 0.08813870120479303
867.993 0.06480870120479296
868.282 0.11147870120479317
868.57 0.08480870120479297
868.86 0.07147870120479313
869.149 0.06813870120479301
869.437 0.07480870120479319
869.726 0.07813870120479324
870.014 0.08147870120479292
870.302 0.06480870120479296
870.591 0.09147870120479315
870.879 0.06480870120479296
871.167 0.10480870120479299
871.455 0.09147870120479315
871.744 0.08813870120479303
872.032 0.07480870120479319
872.32 0.08813870120479303
872.611 0.07480870120479319
872.899 0.08480870120479297
873.187 0.09147870120479315
873.475 0.06480870120479296
873.763 0.08813870120479303
874.052 0.08480870120479297
874.34 0.09147870120479315
874.628 0.10147870120479294
874.916 0.0948087012047932
875.205 0.11147870120479317
875.493 0.09813870120479326
875.781 0.08147870120479292
876.069 0.07813870120479324
876.357 0.08147870120479292
876.645 0.09147870120479315
876.933 0.07480870120479319
877.221 0.10147870120479294
877.51 0.0948087012047932
877.798 0.06813870120479301
878.086 0.06813870120479301
878.374 0.08813870120479303
878.662 0.10147870120479294
878.95 0.08480870120479297
879.238 0.06813870120479301
879.526 0.07147870120479313
879.814 0.08147870120479292
880.102 0.09147870120479315
880.39 0.0614787012047929
880.678 0.07813870120479324
880.966 0.08147870120479292
881.254 0.08480870120479297
881.542 0.10480870120479299
881.83 0.09813870120479326
882.118 0.0948087012047932
882.406 0.09813870120479326
882.694 0.08813870120479303
882.982 0.09147870120479315
883.27 0.06813870120479301
883.558 0.07813870120479324
883.846 0.08813870120479303
884.134 0.07480870120479319
884.421 0.08147870120479292
884.709 0.10147870120479294
884.995 0.11480870120479322
885.283 0.0948087012047932
885.571 0.08480870120479297
885.859 0.09147870120479315
886.147 0.07813870120479324
886.434 0.0948087012047932
886.722 0.09147870120479315
887.01 0.07147870120479313
887.298 0.08813870120479303
887.586 0.08813870120479303
887.873 0.07813870120479324
888.161 0.09813870120479326
888.449 0.07813870120479324
888.735 0.07147870120479313
889.022 0.09147870120479315
889.31 0.06813870120479301
889.598 0.06813870120479301
889.886 0.08147870120479292
890.173 0.10147870120479294
890.461 0.08147870120479292
890.749 0.07813870120479324
891.036 0.07147870120479313
891.324 0.07813870120479324
891.61 0.08480870120479297
891.897 0.0614787012047929
892.185 0.06813870120479301
892.473 0.08147870120479292
892.76 0.06813870120479301
893.048 0.0948087012047932
893.335 0.07480870120479319
893.621 0.0948087012047932
893.909 0.07147870120479313
894.196 0.08147870120479292
894.484 0.08813870120479303
894.771 0.08813870120479303
895.059 0.09813870120479326
895.346 0.07813870120479324
895.632 0.07480870120479319
895.919 0.09813870120479326
896.207 0.07480870120479319
896.495 0.07480870120479319
896.782 0.07147870120479313
897.069 0.10147870120479294
897.355 0.0948087012047932
897.642 0.07480870120479319
897.93 0.09813870120479326
898.217 0.08813870120479303
898.505 0.06813870120479301
898.79 0.08147870120479292
899.078 0.10147870120479294
899.365 0.08480870120479297
899.652 0.09147870120479315
899.94 0.08480870120479297
900.227 0.08813870120479303
900.513 0.09147870120479315
900.8 0.09147870120479315
901.087 0.0614787012047929
901.375 0.08480870120479297
901.66 0.08480870120479297
901.947 0.12480870120479301
902.235 0.10147870120479294
902.522 0.08480870120479297
902.809 0.09147870120479315
903.095 0.08813870120479303
903.382 0.0948087012047932
903.669 0.07813870120479324
903.956 0.08480870120479297
904.242 0.08480870120479297
904.529 0.10480870120479299
904.816 0.08147870120479292
905.103 0.07813870120479324
905.389 0.0948087012047932
905.676 0.08813870120479303
905.963 0.07813870120479324
906.25 0.0948087012047932
906.536 0.09147870120479315
906.823 0.07813870120479324
907.11 0.08813870120479303
907.397 0.08480870120479297
907.682 0.07480870120479319
907.969 0.08813870120479303
908.256 0.08147870120479292
908.542 0.08147870120479292
908.829 0.09147870120479315
909.116 0.09147870120479315
909.403 0.08813870120479303
909.688 0.10813870120479305
909.975 0.0948087012047932
910.262 0.09813870120479326
910.547 0.07480870120479319
910.834 0.10147870120479294
911.121 0.08480870120479297
911.406 0.0948087012047932
911.693 0.0948087012047932
911.98 0.10480870120479299
912.267 0.10480870120479299
912.552 0.07480870120479319
912.839 0.08480870120479297
913.126 0.11147870120479317
913.411 0.10147870120479294
913.698 0.10813870120479305
913.985 0.07813870120479324
914.27 0.0948087012047932
914.557 0.08147870120479292
914.844 0.12147870120479295
915.129 0.0948087012047932
915.416 0.07813870120479324
915.703 0.10480870120479299
915.988 0.09147870120479315
916.274 0.07480870120479319
916.559 0.09147870120479315
916.846 0.08813870120479303
917.133 0.09147870120479315
917.418 0.08480870120479297
917.705 0.09147870120479315
917.992 0.11147870120479317
918.276 0.058138701204793225
918.563 0.10480870120479299
918.848 0.10480870120479299
919.135 0.09813870120479326
919.422 0.06480870120479296
919.706 0.09813870120479326
919.993 0.11480870120479322
920.28 0.0948087012047932
920.565 0.08480870120479297
920.851 0.08480870120479297
921.136 0.07813870120479324
921.423 0.10480870120479299
921.709 0.08813870120479303
921.994 0.10147870120479294
922.281 0.10147870120479294
922.566 0.08480870120479297
922.852 0.08813870120479303
923.137 0.0948087012047932
923.424 0.07813870120479324
923.71 0.07813870120479324
923.995 0.10480870120479299
924.281 0.10813870120479305
924.566 0.10147870120479294
924.853 0.10480870120479299
925.137 0.08480870120479297
925.424 0.0948087012047932
925.71 0.10147870120479294
925.995 0.06813870120479301
926.282 0.06480870120479296
926.566 0.09147870120479315
926.853 0.09813870120479326
927.137 0.0948087012047932
927.424 0.07480870120479319
927.708 0.08480870120479297
927.995 0.10813870120479305
928.279 0.09147870120479315
928.566 0.07813870120479324
928.85 0.06480870120479296
929.137 0.08480870120479297
929.421 0.08813870120479303
929.708 0.08480870120479297
929.992 0.09147870120479315
930.279 0.08480870120479297
930.565 0.09147870120479315
930.849 0.10480870120479299
931.136 0.0948087012047932
931.42 0.10480870120479299
931.707 0.10480870120479299
931.991 0.11813870120479328
932.275 0.07480870120479319
932.562 0.10147870120479294
932.846 0.08813870120479303
933.132 0.08480870120479297
933.417 0.09147870120479315
933.703 0.08813870120479303
933.987 0.10480870120479299
934.274 0.08480870120479297
934.558 0.0948087012047932
934.844 0.10147870120479294
935.129 0.10480870120479299
935.415 0.058138701204793225
935.699 0.0948087012047932
935.985 0.08147870120479292
936.27 0.09813870120479326
936.556 0.08147870120479292
936.84 0.08480870120479297
937.124 0.09147870120479315
937.411 0.08813870120479303
937.695 0.0948087012047932
937.981 0.09147870120479315
938.265 0.08813870120479303
938.551 0.10147870120479294
938.836 0.07147870120479313
939.12 0.10147870120479294
939.406 0.07480870120479319
939.69 0.07480870120479319
939.976 0.06813870120479301
940.26 0.08147870120479292
940.546 0.09147870120479315
940.831 0.10480870120479299
941.115 0.09813870120479326
941.401 0.09147870120479315
941.685 0.08813870120479303
941.971 0.08480870120479297
942.255 0.08147870120479292
942.539 0.0948087012047932
942.825 0.08813870120479303
943.109 0.09813870120479326
943.393 0.08480870120479297
943.679 0.09147870120479315
943.963 0.07480870120479319
944.249 0.10147870120479294
944.533 0.07147870120479313
944.817 0.10480870120479299
945.103 0.08147870120479292
945.387 0.09813870120479326
945.671 0.09813870120479326
945.957 0.09147870120479315
946.241 0.12147870120479295
946.525 0.08480870120479297
946.811 0.07813870120479324
947.095 0.08480870120479297
947.38 0.08813870120479303
947.664 0.07813870120479324
947.948 0.11480870120479322
948.234 0.06813870120479301
948.518 0.06480870120479296
948.802 0.0948087012047932
949.088 0.08480870120479297
949.372 0.07480870120479319
949.655 0.08813870120479303
949.939 0.07813870120479324
950.225 0.06480870120479296
950.509 0.07480870120479319
950.793 0.10813870120479305
951.078 0.07813870120479324
951.362 0.07813870120479324
951.646 0.08147870120479292
951.932 0.09813870120479326
952.215 0.0948087012047932
952.499 0.07813870120479324
952.785 0.09147870120479315
953.069 0.06480870120479296
953.352 0.10147870120479294
953.636 0.08480870120479297
953.922 0.09147870120479315
954.205 0.10813870120479305
954.489 0.08813870120479303
954.773 0.07480870120479319
955.058 0.09147870120479315
955.342 0.0948087012047932
955.626 0.09147870120479315
955.911 0.0948087012047932
956.195 0.06480870120479296
956.479 0.08480870120479297
956.762 0.08480870120479297
957.048 0.08480870120479297
957.331 0.08480870120479297
957.615 0.09813870120479326
957.899 0.07480870120479319
958.184 0.08480870120479297
958.468 0.10813870120479305
958.751 0.08480870120479297
959.035 0.09147870120479315
959.318 0.08147870120479292
959.604 0.07147870120479313
959.887 0.10147870120479294
960.171 0.09147870120479315
960.454 0.11480870120479322
960.74 0.09813870120479326
961.023 0.07813870120479324
961.307 0.0948087012047932
961.59 0.08480870120479297
961.874 0.11147870120479317
962.159 0.07813870120479324
962.443 0.08480870120479297
962.726 0.11147870120479317
963.009 0.12147870120479295
963.293 0.09147870120479315
963.578 0.08147870120479292
963.862 0.08147870120479292
964.145 0.08480870120479297
964.428 0.07813870120479324
964.712 0.07813870120479324
964.995 0.09147870120479315
965.28 0.11813870120479328
965.564 0.08813870120479303
965.847 0.07147870120479313
966.13 0.10480870120479299
966.414 0.08147870120479292
966.697 0.0948087012047932
966.982 0.08813870120479303
967.266 0.08480870120479297
967.549 0.0948087012047932
967.832 0.10480870120479299
968.115 0.09147870120479315
968.399 0.07813870120479324
968.682 0.10147870120479294
968.967 0.09147870120479315
969.25 0.058138701204793225
969.533 0.08480870120479297
969.817 0.07813870120479324
970.1 0.10147870120479294
970.383 0.0948087012047932
970.666 0.08813870120479303
970.949 0.0614787012047929
971.233 0.12147870120479295
971.518 0.0948087012047932
971.801 0.08813870120479303
972.084 0.10147870120479294
972.367 0.07480870120479319
972.65 0.07480870120479319
972.933 0.09147870120479315
973.216 0.10480870120479299
973.499 0.09147870120479315
973.783 0.08813870120479303
974.066 0.06480870120479296
974.351 0.07480870120479319
974.634 0.07480870120479319
974.917 0.08480870120479297
975.2 0.08813870120479303
975.483 0.08147870120479292
975.766 0.09147870120479315
976.049 0.08480870120479297
976.332 0.09147870120479315
976.615 0.10480870120479299
976.898 0.09147870120479315
977.181 0.08813870120479303
977.464 0.10813870120479305
977.747 0.07813870120479324
978.03 0.0948087012047932
978.313 0.08813870120479303
978.595 0.10813870120479305
978.878 0.09147870120479315
979.161 0.09147870120479315
979.444 0.08813870120479303
979.729 0.08813870120479303
980.012 0.08147870120479292
980.295 0.07480870120479319
980.578 0.0948087012047932
980.861 0.11147870120479317
981.143 0.10147870120479294
981.426 0.08147870120479292
981.709 0.09147870120479315
981.992 0.05480870120479317
982.275 0.08480870120479297
982.557 0.07813870120479324
982.84 0.08147870120479292
983.123 0.10147870120479294
983.406 0.08147870120479292
983.689 0.0948087012047932
983.971 0.09147870120479315
984.254 0.08813870120479303
984.537 0.09147870120479315
984.82 0.0948087012047932
985.102 0.07813870120479324
985.383 0.08147870120479292
985.666 0.0948087012047932
985.948 0.09147870120479315
986.231 0.11480870120479322
986.514 0.10147870120479294
986.797 0.0948087012047932
987.079 0.0948087012047932
987.362 0.08480870120479297
987.644 0.0948087012047932
987.927 0.10147870120479294
988.21 0.11147870120479317
988.492 0.0948087012047932
988.775 0.09147870120479315
989.058 0.08813870120479303
989.34 0.07813870120479324
989.623 0.09813870120479326
989.905 0.0948087012047932
990.188 0.11147870120479317
990.468 0.06813870120479301
990.751 0.0948087012047932
991.034 0.08147870120479292
991.316 0.09813870120479326
991.599 0.08813870120479303
991.881 0.07813870120479324
992.164 0.10147870120479294
992.446 0.07480870120479319
992.729 0.10147870120479294
993.011 0.07813870120479324
993.293 0.07813870120479324
993.574 0.09147870120479315
993.856 0.08813870120479303
994.139 0.08480870120479297
994.421 0.09813870120479326
994.704 0.11480870120479322
994.986 0.06813870120479301
995.269 0.08480870120479297
995.551 0.09813870120479326
995.831 0.08480870120479297
996.114 0.10813870120479305
996.396 0.07480870120479319
996.678 0.10480870120479299
996.961 0.0948087012047932
997.243 0.08813870120479303
997.525 0.07147870120479313
997.806 0.09147870120479315
998.088 0.10147870120479294
998.37 0.08480870120479297
998.653 0.08147870120479292
998.935 0.09813870120479326
999.217 0.09813870120479326
999.498 0.09813870120479326
999.78 0.08813870120479303
1000.06 0.07813870120479324
1000.34 0.08813870120479303
1000.63 0.09813870120479326
1000.91 0.08813870120479303
1001.19 0.11147870120479317
1001.47 0.08480870120479297
1001.75 0.07813870120479324
1002.04 0.08813870120479303
1002.32 0.07813870120479324
1002.6 0.08147870120479292
1002.88 0.09813870120479326
1003.16 0.08813870120479303
1003.44 0.08147870120479292
1003.73 0.11480870120479322
1004.01 0.08480870120479297
1004.29 0.0948087012047932
1004.57 0.0948087012047932
1004.85 0.08480870120479297
1005.14 0.11813870120479328
1005.42 0.10147870120479294
1005.7 0.10147870120479294
1005.98 0.09147870120479315
1006.26 0.10147870120479294
1006.54 0.07147870120479313
1006.82 0.12147870120479295
1007.11 0.10147870120479294
1007.39 0.08480870120479297
1007.67 0.08480870120479297
1007.95 0.08480870120479297
1008.23 0.07480870120479319
1008.51 0.10147870120479294
1008.79 0.0948087012047932
1009.08 0.08813870120479303
1009.36 0.09813870120479326
1009.64 0.08147870120479292
1009.92 0.09813870120479326
1010.2 0.08813870120479303
1010.48 0.09147870120479315
1010.76 0.10480870120479299
1011.05 0.09147870120479315
1011.33 0.10147870120479294
1011.61 0.08480870120479297
1011.89 0.08147870120479292
1012.17 0.07813870120479324
1012.45 0.08147870120479292
1012.73 0.10480870120479299
1013.01 0.09813870120479326
1013.3 0.11147870120479317
1013.58 0.08813870120479303
1013.86 0.08813870120479303
1014.14 0.08480870120479297
1014.42 0.06480870120479296
1014.6600000000001 0.10072461459603779
1014.9449999999999 0.09239461459603762
1015.23 0.09239461459603762
1015.51 0.08572461459603767
1015.7950000000001 0.1007296145960376
1016.0799999999999 0.10239461459603763
1016.365 0.11238961459603761
1016.645 0.08739461459603773
1016.9300000000001 0.0907296145960376
1017.21 0.08905961459603776
1017.495 0.11239461459603764
1017.78 0.09905961459603754
1018.06 0.07738961459603746
1018.35 0.09739461459603774
1018.63 0.09239461459603762
1018.915 0.09405961459603765
1019.2 0.08905961459603753
1019.48 0.10405961459603766
1019.765 0.09739461459603752
1020.045 0.0873896145960377
1020.33 0.12405961459603768
1020.61 0.0723946145960376
1020.895 0.10405961459603744
1021.1800000000001 0.08072461459603755
1021.465 0.10572461459603769
1021.75 0.09738961459603748
1022.03 0.08238961459603758
1022.315 0.09739461459603774
1022.595 0.09739461459603774
1022.88 0.09072461459603756
1023.165 0.10738961459603749
1023.4449999999999 0.08572461459603745
1023.73 0.09905961459603754
1024.01 0.10405961459603766
1024.295 0.09572461459603746
1024.5749999999998 0.09405961459603765
1024.8600000000001 0.08405961459603764
1025.145 0.08739461459603773
1025.43 0.08739461459603773
1025.7150000000001 0.07072461459603754
1025.995 0.09905961459603754
1026.28 0.10072461459603779
1026.56 0.09905961459603754
1026.845 0.09739461459603752
1027.125 0.07905961459603753
1027.4099999999999 0.09739461459603774
1027.55 0.09405961459603765
1027.835 0.09405961459603743
1028.115 0.09905961459603776
1028.4 0.10405961459603766
1028.6799999999998 0.09572461459603768
1028.9650000000001 0.09572461459603768
1029.245 0.11238961459603761
1029.53 0.11572461459603747
1029.81 0.08905961459603776
1030.095 0.07905961459603775
1030.375 0.11072961459603761
1030.6599999999999 0.09739461459603752
1030.9450000000002 0.08405961459603764
1031.225 0.10405961459603766
1031.51 0.11905961459603756
1031.795 0.10072461459603757
1032.0749999999998 0.09739461459603752
1032.3600000000001 0.10405961459603766
1032.645 0.09738961459603748
1032.9250000000002 0.10572461459603769
1033.21 0.09405961459603765
1033.49 0.09905961459603754
1033.775 0.10072461459603757
1034.0549999999998 0.0907296145960376
1034.34 0.09572961459603771
1034.62 0.09405961459603743
1034.9050000000002 0.08905961459603753
1035.185 0.0873896145960377
1035.47 0.10405961459603744
1035.75 0.07905961459603775
1036.0349999999999 0.11072461459603758
1036.315 0.1023896145960376
1036.6 0.09238961459603759
1036.88 0.09905961459603754
1037.165 0.09739461459603752
1037.4450000000002 0.08739461459603773
1037.73 0.10239461459603763
1038.01 0.10405961459603766
1038.295 0.0907296145960376
1038.5749999999998 0.0907296145960376
1038.8600000000001 0.10405961459603766
1039.1399999999999 0.10239461459603763
1039.4250000000002 0.1007296145960376
1039.705 0.10572461459603769
1039.99 0.10072461459603757
1040.27 0.08405961459603764
1040.5549999999998 0.0873946145960375
1040.835 0.10405961459603766
1041.115 0.10072461459603757
1041.4 0.1057296145960375
1041.68 0.10572961459603772
1041.9650000000001 0.10405961459603766
1042.245 0.10905961459603777
1042.53 0.09405961459603765
1042.81 0.10905961459603755
1043.095 0.09405961459603765
1043.375 0.10405961459603744
1043.6599999999999 0.0973896145960377
1043.8 0.09905961459603754
1044.08 0.10072461459603779
1044.3600000000001 0.10405961459603766
1044.6399999999999 0.11239461459603764
1044.92 0.10239461459603763
1045.205 0.11072461459603758
1045.4850000000001 0.11072461459603758
1045.77 0.10905961459603755
1046.05 0.1057296145960375
1046.335 0.10572461459603769
1046.615 0.07072961459603758
1046.9 0.11405961459603767
1047.18 0.10572961459603772
1047.4650000000001 0.10738961459603749
1047.745 0.1023896145960376
1048.025 0.08572461459603767
1048.31 0.11239461459603764
1048.59 0.09405961459603765
1048.875 0.09239461459603762
1049.1550000000002 0.09572961459603771
1049.44 0.08572461459603767
1049.72 0.09238961459603759
1049.995 0.09739461459603752
1050.28 0.09739461459603774
1050.56 0.1007296145960376
1050.8449999999998 0.1007296145960376
1051.125 0.11072961459603761
1051.41 0.11239461459603764
1051.69 0.0873946145960375
1051.97 0.1007296145960376
1052.255 0.10072461459603757
1052.5349999999999 0.10739461459603775
1052.82 0.11239461459603764
1053.1 0.08905961459603753
1053.385 0.12405961459603745
1053.66 0.10072461459603757
1053.94 0.11739461459603753
1054.225 0.09905961459603754
1054.505 0.10572961459603772
1054.79 0.09072461459603756
1055.07 0.11072461459603758
1055.355 0.12072461459603759
1055.635 0.11739461459603776
1055.915 0.10239461459603763
1056.2 0.08905961459603753
1056.48 0.12405961459603745
1056.755 0.11072461459603758
1057.04 0.09405961459603765
1057.32 0.1157246145960377
1057.605 0.09905961459603754
1057.885 0.10738961459603749
1058.165 0.10239461459603763
1058.45 0.12405961459603768
1058.73 0.11072961459603761
1059.01 0.11905961459603756
1059.29 0.12072461459603759
1059.575 0.1007296145960376
1059.71 0.1157296145960375
1059.995 0.0907296145960376
1060.275 0.1157246145960377
1060.56 0.08905961459603776
1060.8400000000001 0.10405961459603766
1061.12 0.09905961459603776
1061.405 0.09239461459603762
1061.68 0.10572961459603772
1061.96 0.10572461459603769
1062.245 0.09905961459603754
1062.525 0.11405961459603767
1062.81 0.1007296145960376
1063.0900000000001 0.10905961459603777
1063.37 0.1157246145960377
1063.655 0.10239461459603763
1063.93 0.10239461459603763
1064.21 0.10405961459603766
1064.495 0.12072961459603762
1064.775 0.1023896145960376
1065.0549999999998 0.11405961459603767
1065.34 0.1007296145960376
1065.62 0.13072961459603763
1065.895 0.10405961459603744
1066.18 0.09572961459603771
1066.46 0.12072461459603759
1066.745 0.12405961459603768
1067.025 0.1007296145960376
1067.3049999999998 0.10739461459603775
1067.59 0.12072961459603762
1067.8649999999998 0.09572461459603768
1068.145 0.10905961459603777
1068.43 0.10739461459603775
1068.71 0.11905961459603756
1068.99 0.12405961459603768
1069.275 0.11072461459603758
1069.55 0.1157246145960377
1069.83 0.10572461459603769
1070.115 0.13072961459603763
1070.395 0.11905961459603756
1070.6750000000002 0.10739461459603752
1070.96 0.10072461459603757
1071.24 0.1157246145960377
1071.5149999999999 0.11405961459603745
1071.8 0.1157296145960375
1072.08 0.1057296145960375
1072.3600000000001 0.09905961459603776
1072.645 0.1157246145960377
1072.92 0.10072461459603757
1073.2 0.12905961459603757
1073.4850000000001 0.11905961459603756
1073.7649999999999 0.13239461459603744
1074.045 0.10572461459603769
1074.325 0.10572461459603769
1074.605 0.09738961459603748
1074.885 0.12905961459603757
1075.165 0.11238961459603761
1075.45 0.12072461459603759
1075.73 0.11072961459603761
1075.865 0.09905961459603776
1076.145 0.12738961459603773
1076.4299999999998 0.1157246145960377
1076.71 0.10072461459603757
1076.9850000000001 0.12738961459603773
1077.27 0.1290596145960378
1077.55 0.1273896145960375
1077.83 0.12072961459603762
1078.1100000000001 0.10905961459603755
1078.3899999999999 0.1307246145960376
1078.67 0.1257246145960377
1078.95 0.12072461459603759
1079.23 0.1357246145960377
1079.5149999999999 0.11739461459603776
1079.79 0.11905961459603756
1080.07 0.12072461459603759
1080.355 0.10738961459603771
1080.635 0.11905961459603778
1080.915 0.10405961459603766
1081.1950000000002 0.11405961459603767
1081.475 0.10905961459603755
1081.755 0.09739461459603752
1082.0349999999999 0.11739461459603776
1082.32 0.1307246145960376
1082.5949999999998 0.10905961459603755
1082.875 0.12239461459603765
1083.1550000000002 0.1007296145960376
1083.435 0.12072961459603762
1083.7150000000001 0.1157246145960377
1083.995 0.11405961459603767
1084.28 0.10405961459603744
1084.5549999999998 0.11239461459603764
1084.835 0.12905961459603757
1085.115 0.1157246145960377
1085.4 0.12072961459603762
1085.68 0.10739461459603752
1085.955 0.11905961459603778
1086.2350000000001 0.10905961459603777
1086.52 0.10905961459603755
1086.8 0.12739461459603776
1087.0749999999998 0.10572961459603772
1087.355 0.11905961459603756
1087.6399999999999 0.11739461459603776
1087.92 0.12405961459603768
1088.1950000000002 0.11739461459603753
1088.475 0.12238961459603762
1088.76 0.12239461459603765
1089.04 0.12072461459603759
1089.315 0.12238961459603762
1089.595 0.12072461459603759
1089.88 0.11905961459603756
1090.155 0.11739461459603753
1090.435 0.1257246145960377
1090.7150000000001 0.0973896145960377
1090.995 0.10905961459603755
1091.13 0.10739461459603752
1091.415 0.10405961459603766
1091.6950000000002 0.12739461459603776
1091.975 0.1307246145960376
1092.25 0.1357246145960377
1092.5349999999999 0.1157296145960375
1092.815 0.11905961459603778
1093.0900000000001 0.10739461459603752
1093.37 0.1173896145960375
1093.655 0.10905961459603755
1093.935 0.11405961459603767
1094.21 0.1257246145960377
1094.49 0.10905961459603777
1094.77 0.12072461459603759
1095.045 0.11905961459603756
1095.33 0.12239461459603765
1095.6100000000001 0.11239461459603764
1095.8899999999999 0.12905961459603757
1096.165 0.1290596145960378
1096.45 0.12238961459603762
1096.73 0.13739461459603777
1097.005 0.11905961459603756
1097.2849999999999 0.1257246145960377
1097.565 0.12905961459603757
1097.8449999999998 0.11072961459603761
1098.125 0.11405961459603767
1098.4050000000002 0.1157246145960377
1098.68 0.11905961459603756
1098.96 0.12905961459603757
1099.245 0.11905961459603778
1099.525 0.10905961459603755
1099.8 0.12405961459603768
1100.08 0.13739461459603755
1100.36 0.1257246145960377
1100.37 0.12331052798728236
1100.66 0.12664052798728198
1100.94 0.12331052798728236
1101.22 0.10331052798728234
1101.5 0.10998052798728207
1101.78 0.146640527987282
1102.06 0.10664052798728195
1102.34 0.12331052798728236
1102.63 0.12331052798728236
1102.91 0.13331052798728216
1103.19 0.1366405279872822
1103.47 0.09998052798728228
1103.75 0.12331052798728236
1104.04 0.11664052798728218
1104.32 0.1199805279872823
1104.6 0.10331052798728234
1104.88 0.1299805279872821
1105.16 0.10664052798728195
1105.44 0.11664052798728218
1105.72 0.10998052798728207
1106.01 0.12664052798728198
1106.29 0.1299805279872821
1106.57 0.10331052798728234
1106.85 0.1199805279872823
1107.13 0.12331052798728236
1107.42 0.11664052798728218
1107.7 0.11331052798728213
1107.98 0.13331052798728216
1108.26 0.11664052798728218
1108.54 0.11331052798728213
1108.82 0.11664052798728218
1109.1 0.10664052798728195
1109.38 0.09998052798728228
1109.67 0.09998052798728228
1109.95 0.1299805279872821
1110.23 0.10998052798728207
1110.51 0.12664052798728198
1110.79 0.1199805279872823
1111.07 0.10331052798728234
1111.35 0.11331052798728213
1111.63 0.11331052798728213
1111.92 0.10664052798728195
1112.2 0.12664052798728198
1112.48 0.09331052798728211
1112.76 0.11331052798728213
1113.04 0.07998052798728227
1113.32 0.13998052798728233
1113.6 0.11331052798728213
1113.89 0.09664052798728216
1114.17 0.1366405279872822
1114.45 0.1299805279872821
1114.73 0.12331052798728236
1115.01 0.09331052798728211
1115.29 0.11664052798728218
1115.57 0.09664052798728216
1115.85 0.12664052798728198
1116.13 0.11331052798728213
1116.42 0.11331052798728213
1116.7 0.10998052798728207
1116.98 0.09664052798728216
1117.26 0.10664052798728195
1117.54 0.12331052798728236
1117.82 0.08998052798728205
1118.1 0.11331052798728213
1118.38 0.10664052798728195
1118.66 0.10331052798728234
1118.94 0.1299805279872821
1119.23 0.10664052798728195
1119.51 0.12664052798728198
1119.79 0.10998052798728207
1120.07 0.10998052798728207
1120.35 0.12331052798728236
1120.63 0.10664052798728195
1120.91 0.10664052798728195
1121.19 0.12331052798728236
1121.47 0.12664052798728198
1121.75 0.11331052798728213
1122.03 0.11331052798728213
1122.32 0.08331052798728232
1122.6 0.10664052798728195
1122.88 0.1366405279872822
1123.16 0.12664052798728198
1123.44 0.13998052798728233
1123.72 0.1299805279872821
1124.0 0.11331052798728213
1124.28 0.08664052798728193
1124.56 0.1199805279872823
1124.84 0.11664052798728218
1125.12 0.10664052798728195
1125.4 0.09998052798728228
1125.68 0.10664052798728195
1125.96 0.11331052798728213
1126.24 0.11664052798728218
1126.52 0.12664052798728198
1126.8 0.10331052798728234
1127.08 0.1199805279872823
1127.37 0.10998052798728207
1127.65 0.12331052798728236
1127.93 0.09998052798728228
1128.21 0.08664052798728193
1128.49 0.10664052798728195
1128.77 0.08664052798728193
1129.05 0.09998052798728228
1129.33 0.11331052798728213
1129.61 0.12664052798728198
1129.89 0.12331052798728236
1130.17 0.1199805279872823
1130.45 0.1366405279872822
1130.73 0.12664052798728198
1131.01 0.11331052798728213
1131.29 0.09664052798728216
1131.57 0.09998052798728228
1131.85 0.10664052798728195
1132.13 0.11331052798728213
1132.41 0.10331052798728234
1132.69 0.1199805279872823
1132.97 0.10331052798728234
1133.25 0.1199805279872823
1133.53 0.10664052798728195
1133.81 0.11664052798728218
1134.09 0.09998052798728228
1134.37 0.10331052798728234
1134.65 0.08998052798728205
1134.93 0.12331052798728236
1135.21 0.1199805279872823
1135.49 0.10331052798728234
1135.77 0.11664052798728218
1136.06 0.10998052798728207
1136.34 0.1199805279872823
1136.62 0.10664052798728195
1136.9 0.11331052798728213
1137.17 0.10998052798728207
1137.45 0.1199805279872823
1137.73 0.11331052798728213
1138.01 0.11664052798728218
1138.29 0.12331052798728236
1138.57 0.10331052798728234
1138.86 0.11331052798728213
1139.14 0.09664052798728216
1139.42 0.12331052798728236
1139.69 0.10664052798728195
1139.97 0.10664052798728195
1140.25 0.1199805279872823
1140.53 0.09331052798728211
1140.81 0.10664052798728195
1141.09 0.10664052798728195
1141.37 0.1199805279872823
1141.65 0.12331052798728236
1141.93 0.1199805279872823
1142.21 0.09998052798728228
1142.49 0.1199805279872823
1142.77 0.11664052798728218
1143.05 0.10664052798728195
1143.33 0.10664052798728195
1143.61 0.09664052798728216
1143.89 0.1199805279872823
1144.17 0.08998052798728205
1144.45 0.09331052798728211
1144.73 0.08998052798728205
1145.01 0.07998052798728227
1145.29 0.10998052798728207
1145.57 0.11331052798728213
1145.85 0.09998052798728228
1146.13 0.11331052798728213
1146.41 0.10664052798728195
1146.69 0.08998052798728205
1146.97 0.08998052798728205
1147.25 0.09664052798728216
1147.53 0.08998052798728205
1147.81 0.09331052798728211
1148.08 0.08331052798728232
1148.36 0.10331052798728234
1148.64 0.09998052798728228
1148.92 0.11331052798728213
1149.2 0.09998052798728228
1149.48 0.10331052798728234
1149.76 0.10998052798728207
1150.04 0.12664052798728198
1150.32 0.10664052798728195
1150.6 0.09998052798728228
1150.88 0.09664052798728216
1151.16 0.11331052798728213
1151.44 0.07664052798728214
1151.72 0.10998052798728207
1152.0 0.07998052798728227
1152.28 0.12664052798728198
1152.56 0.11331052798728213
1152.83 0.10331052798728234
1153.11 0.1199805279872823
1153.39 0.12664052798728198
1153.67 0.11664052798728218
1153.95 0.07664052798728214
1154.23 0.11664052798728218
1154.51 0.07998052798728227
1154.79 0.09998052798728228
1155.07 0.09664052798728216
1155.35 0.09998052798728228
1155.63 0.10331052798728234
1155.9 0.08998052798728205
1156.18 0.12664052798728198
1156.46 0.07331052798728209
1156.74 0.08998052798728205
1157.02 0.08331052798728232
1157.3 0.11664052798728218
1157.58 0.06664052798728236
1157.86 0.09664052798728216
1158.14 0.08664052798728193
1158.42 0.11664052798728218
1158.7 0.11664052798728218
1158.98 0.10664052798728195
1159.25 0.1199805279872823
1159.53 0.08331052798728232
1159.81 0.10331052798728234
1160.09 0.12331052798728236
1160.37 0.1199805279872823
1160.65 0.1199805279872823
1160.93 0.08998052798728205
1161.21 0.11331052798728213
1161.49 0.10331052798728234
1161.76 0.09331052798728211
1162.04 0.11664052798728218
1162.32 0.08664052798728193
1162.6 0.10998052798728207
1162.88 0.10664052798728195
1163.16 0.10664052798728195
1163.44 0.10331052798728234
1163.72 0.09664052798728216
1163.99 0.10998052798728207
1164.27 0.11331052798728213
1164.55 0.11664052798728218
1164.83 0.10331052798728234
1165.11 0.10664052798728195
1165.39 0.07998052798728227
1165.67 0.11331052798728213
1165.94 0.11664052798728218
1166.22 0.11331052798728213
1166.5 0.10998052798728207
1166.78 0.11331052798728213
1167.06 0.1299805279872821
1167.34 0.10331052798728234
1167.61 0.10664052798728195
1167.89 0.10664052798728195
1168.17 0.09998052798728228
1168.45 0.07664052798728214
1168.73 0.09998052798728228
1169.01 0.11331052798728213
1169.29 0.09998052798728228
1169.56 0.10331052798728234
1169.84 0.09998052798728228
1170.12 0.10331052798728234
1170.4 0.10664052798728195
1170.68 0.12664052798728198
1170.96 0.11331052798728213
1171.23 0.08331052798728232
1171.51 0.146640527987282
1171.79 0.11331052798728213
1172.07 0.10664052798728195
1172.35 0.09664052798728216
1172.63 0.10664052798728195
1172.91 0.10998052798728207
1173.18 0.09998052798728228
1173.46 0.09998052798728228
1173.74 0.07998052798728227
1174.02 0.10331052798728234
1174.29 0.10664052798728195
1174.57 0.08664052798728193
1174.85 0.11331052798728213
1175.13 0.10664052798728195
1175.41 0.11664052798728218
1175.69 0.09998052798728228
1175.96 0.1199805279872823
1176.24 0.1199805279872823
1176.52 0.08998052798728205
1176.8 0.10331052798728234
1177.08 0.1299805279872821
1177.36 0.09998052798728228
1177.63 0.11331052798728213
1177.91 0.09998052798728228
1178.19 0.11331052798728213
1178.47 0.07998052798728227
1178.74 0.09998052798728228
1179.02 0.10998052798728207
1179.3 0.11331052798728213
1179.58 0.10331052798728234
1179.86 0.11664052798728218
1180.13 0.12331052798728236
1180.41 0.08664052798728193
1180.69 0.10664052798728195
1180.97 0.09331052798728211
1181.25 0.10664052798728195
1181.52 0.08331052798728232
1181.8 0.10331052798728234
1182.08 0.11331052798728213
1182.36 0.12331052798728236
1182.63 0.08331052798728232
1182.91 0.09998052798728228
1183.19 0.13998052798728233
1183.47 0.10664052798728195
1183.75 0.1199805279872823
1184.02 0.1299805279872821
1184.3 0.08664052798728193
1184.58 0.11331052798728213
1184.86 0.09998052798728228
1185.13 0.08998052798728205
1185.41 0.10998052798728207
1185.69 0.10664052798728195
1185.97 0.08998052798728205
1186.25 0.1199805279872823
1186.52 0.08331052798728232
1186.8 0.11331052798728213
1187.08 0.1199805279872823
1187.35 0.10664052798728195
1187.63 0.10998052798728207
1187.91 0.08998052798728205
1188.19 0.08664052798728193
1188.47 0.10331052798728234
1188.74 0.09331052798728211
1189.02 0.10664052798728195
1189.3 0.08331052798728232
1189.57 0.10998052798728207
1189.85 0.08331052798728232
1190.13 0.11664052798728218
1190.41 0.09331052798728211
1190.69 0.09664052798728216
1190.96 0.10664052798728195
1191.24 0.09331052798728211
1191.52 0.09664052798728216
1191.79 0.10331052798728234
1192.07 0.06998052798728203
1192.35 0.10331052798728234
1192.63 0.09998052798728228
1192.9 0.09998052798728228
1193.18 0.11664052798728218
1193.46 0.11664052798728218
1193.73 0.09998052798728228
1194.01 0.09998052798728228
1194.29 0.11331052798728213
1194.57 0.08331052798728232
1194.84 0.10331052798728234
1195.12 0.08331052798728232
1195.4 0.10331052798728234
1195.67 0.09664052798728216
1195.95 0.09331052798728211
1196.23 0.1299805279872821
1196.51 0.10664052798728195
1196.78 0.09664052798728216
1197.06 0.09998052798728228
1197.34 0.09998052798728228
1197.61 0.09331052798728211
1197.89 0.11664052798728218
1198.17 0.08998052798728205
1198.45 0.0633105279872823
1198.72 0.11664052798728218
1199.0 0.10331052798728234
1199.28 0.06998052798728203
1199.55 0.09664052798728216
1199.83 0.09998052798728228
1200.11 0.08331052798728232
1200.38 0.09664052798728216
1200.66 0.10331052798728234
1200.94 0.07664052798728214
1201.22 0.10998052798728207
1201.49 0.09664052798728216
1201.77 0.08331052798728232
1202.04 0.07998052798728227
1202.32 0.11331052798728213
1202.6 0.06664052798728236
1202.88 0.09664052798728216
1203.15 0.10664052798728195
1203.43 0.09664052798728216
1203.71 0.10998052798728207
1203.98 0.10331052798728234
1204.26 0.11664052798728218
1204.54 0.1299805279872821
1204.81 0.10331052798728234
1205.09 0.10664052798728195
1205.37 0.08664052798728193
1205.64 0.07998052798728227
1205.92 0.07331052798728209
1206.2 0.08664052798728193
1206.47 0.07998052798728227
1206.75 0.09664052798728216
1207.03 0.09331052798728211
1207.3 0.10664052798728195
1207.58 0.07998052798728227
1207.86 0.09331052798728211
1208.13 0.1199805279872823
1208.41 0.06998052798728203
1208.68 0.11331052798728213
1208.96 0.10664052798728195
1209.24 0.07664052798728214
1209.51 0.10998052798728207
1209.79 0.11331052798728213
1210.07 0.11331052798728213
1210.34 0.09331052798728211
1210.62 0.09664052798728216
1210.9 0.11331052798728213
1211.17 0.09664052798728216
1211.45 0.08998052798728205
1211.73 0.10331052798728234
1212.0 0.09331052798728211
1212.28 0.12664052798728198
1212.55 0.08998052798728205
1212.83 0.08998052798728205
1213.11 0.08998052798728205
1213.38 0.10331052798728234
1213.66 0.08331052798728232
1213.94 0.08664052798728193
1214.21 0.10331052798728234
1214.49 0.08664052798728193
1214.76 0.09664052798728216
1215.04 0.08664052798728193
1215.32 0.07664052798728214
1215.59 0.09664052798728216
1215.87 0.10998052798728207
1216.14 0.11664052798728218
1216.42 0.08331052798728232
1216.7 0.08998052798728205
1216.97 0.07664052798728214
1217.25 0.10331052798728234
1217.53 0.10664052798728195
1217.8 0.10998052798728207
1218.08 0.12331052798728236
1218.35 0.08664052798728193
1218.63 0.07998052798728227
1218.91 0.09998052798728228
1219.18 0.08998052798728205
1219.46 0.10664052798728195
1219.73 0.10664052798728195
1220.01 0.09998052798728228
1220.28 0.11331052798728213
1220.56 0.09664052798728216
1220.84 0.10664052798728195
1221.11 0.10998052798728207
1221.39 0.09664052798728216
1221.66 0.08331052798728232
1221.94 0.08998052798728205
1222.22 0.10331052798728234
1222.49 0.09664052798728216
1222.77 0.07664052798728214
1223.04 0.07998052798728227
1223.32 0.10331052798728234
1223.6 0.09998052798728228
1223.87 0.10998052798728207
1224.15 0.09998052798728228
1224.42 0.11664052798728218
1224.7 0.11331052798728213
1224.97 0.10998052798728207
1225.25 0.11331052798728213
1225.53 0.10998052798728207
1225.8 0.10331052798728234
1226.08 0.09998052798728228
1226.35 0.11331052798728213
1226.63 0.07331052798728209
1226.9 0.11331052798728213
1227.18 0.07998052798728227
1227.45 0.10331052798728234
1227.73 0.1199805279872823
1228.0 0.09998052798728228
1228.28 0.08664052798728193
1228.56 0.11664052798728218
1228.83 0.11331052798728213
1229.11 0.07331052798728209
1229.38 0.09664052798728216
1229.66 0.09998052798728228
1229.93 0.10331052798728234
1230.21 0.08998052798728205
1230.48 0.09998052798728228
1230.76 0.10664052798728195
1231.04 0.10331052798728234
1231.31 0.09998052798728228
1231.59 0.10331052798728234
1231.86 0.09664052798728216
1232.14 0.1199805279872823
1232.41 0.11331052798728213
1232.69 0.10998052798728207
1232.96 0.09664052798728216
1233.24 0.07664052798728214
1233.51 0.1199805279872823
1233.79 0.08331052798728232
1234.06 0.10998052798728207
1234.34 0.09331052798728211
1234.61 0.09998052798728228
1234.89 0.09998052798728228
1235.16 0.09664052798728216
1235.44 0.10331052798728234
1235.71 0.09998052798728228
1235.99 0.09664052798728216
1236.26 0.11331052798728213
1236.54 0.10664052798728195
1236.82 0.09998052798728228
1237.09 0.08331052798728232
1237.36 0.09998052798728228
1237.64 0.09664052798728216
1237.91 0.1299805279872821
1238.19 0.09998052798728228
1238.47 0.12331052798728236
1238.74 0.07331052798728209
1239.02 0.10664052798728195
1239.29 0.09331052798728211
1239.56 0.10331052798728234
1239.84 0.07331052798728209
1240.11 0.11664052798728218
1240.39 0.09998052798728228
1240.67 0.10331052798728234
1240.94 0.1366405279872822
1241.21 0.10664052798728195
1241.49 0.08664052798728193
1241.76 0.09664052798728216
1242.04 0.10664052798728195
1242.31 0.10998052798728207
1242.59 0.08998052798728205
1242.86 0.1199805279872823
1243.14 0.09331052798728211
1243.41 0.10664052798728195
1243.69 0.09998052798728228
1243.96 0.09331052798728211
1244.24 0.11664052798728218
1244.51 0.11664052798728218
1244.79 0.09331052798728211
1245.06 0.10664052798728195
1245.34 0.11331052798728213
1245.61 0.10998052798728207
1245.89 0.12664052798728198
1246.16 0.08664052798728193
1246.44 0.08664052798728193
1246.71 0.10998052798728207
1246.98 0.1199805279872823
1247.26 0.10331052798728234
1247.53 0.10664052798728195
1247.81 0.09331052798728211
1248.08 0.08998052798728205
1248.36 0.11664052798728218
1248.63 0.09664052798728216
1248.91 0.09664052798728216
1249.18 0.09331052798728211
1249.45 0.09664052798728216
1249.73 0.09664052798728216
1250.0 0.09331052798728211
1250.28 0.11664052798728218
1250.55 0.11664052798728218
1250.83 0.12664052798728198
1251.1 0.10331052798728234
1251.37 0.08664052798728193
1251.65 0.09998052798728228
1251.92 0.10664052798728195
1252.2 0.07998052798728227
1252.47 0.09998052798728228
1252.75 0.11664052798728218
1253.02 0.11331052798728213
1253.3 0.09998052798728228
1253.57 0.07998052798728227
1253.84 0.10664052798728195
1254.12 0.09998052798728228
1254.39 0.08664052798728193
1254.67 0.09664052798728216
1254.94 0.08998052798728205
1255.21 0.12664052798728198
1255.49 0.12664052798728198
1255.76 0.08331052798728232
1256.04 0.1199805279872823
1256.31 0.08331052798728232
1256.58 0.10331052798728234
1256.86 0.10664052798728195
1257.13 0.08331052798728232
1257.41 0.11331052798728213
1257.68 0.12331052798728236
1257.96 0.10998052798728207
1258.23 0.10998052798728207
1258.5 0.11331052798728213
1258.78 0.09664052798728216
1259.05 0.10331052798728234
1259.33 0.10664052798728195
1259.6 0.09331052798728211
1259.87 0.10331052798728234
1260.15 0.1199805279872823
1260.42 0.10331052798728234
1260.7 0.09331052798728211
1260.97 0.12664052798728198
1261.24 0.11664052798728218
1261.52 0.10664052798728195
1261.79 0.12331052798728236
1262.06 0.09998052798728228
1262.34 0.10664052798728195
1262.61 0.10998052798728207
1262.89 0.1199805279872823
1263.16 0.08664052798728193
1263.43 0.10664052798728195
1263.71 0.12331052798728236
1263.98 0.12331052798728236
1264.25 0.1299805279872821
1264.53 0.10331052798728234
1264.8 0.11664052798728218
1265.08 0.10331052798728234
1265.35 0.11664052798728218
1265.62 0.10331052798728234
1265.9 0.08998052798728205
1266.17 0.10998052798728207
1266.44 0.10331052798728234
1266.72 0.1199805279872823
1266.99 0.09331052798728211
1267.27 0.10664052798728195
1267.54 0.11331052798728213
1267.81 0.09331052798728211
1268.09 0.12664052798728198
1268.36 0.10998052798728207
1268.63 0.11331052798728213
1268.91 0.10331052798728234
1269.18 0.08998052798728205
1269.45 0.09331052798728211
1269.73 0.09331052798728211
1270.0 0.08331052798728232
1270.27 0.09998052798728228
1270.55 0.09331052798728211
1270.82 0.1199805279872823
1271.09 0.10664052798728195
1271.37 0.11664052798728218
1271.64 0.09998052798728228
1271.91 0.11331052798728213
1272.19 0.1299805279872821
1272.46 0.10331052798728234
1272.73 0.10664052798728195
1273.01 0.10998052798728207
1273.28 0.09664052798728216
1273.55 0.09331052798728211
1273.83 0.08998052798728205
1274.1 0.06998052798728203
1274.37 0.09331052798728211
1274.65 0.09998052798728228
1274.92 0.10331052798728234
1275.19 0.12664052798728198
1275.47 0.10331052798728234
1275.74 0.1199805279872823
1276.01 0.10664052798728195
1276.29 0.09331052798728211
1276.56 0.09998052798728228
1276.83 0.09664052798728216
1277.1 0.07998052798728227
1277.38 0.08998052798728205
1277.65 0.12331052798728236
1277.93 0.07998052798728227
1278.2 0.1199805279872823
1278.47 0.10664052798728195
1278.74 0.10998052798728207
1279.02 0.10998052798728207
1279.29 0.10664052798728195
1279.56 0.08998052798728205
1279.84 0.1299805279872821
1280.11 0.09664052798728216
1280.38 0.09998052798728228
1280.65 0.09331052798728211
1280.93 0.09998052798728228
1281.2 0.11664052798728218
1281.47 0.10331052798728234
1281.75 0.10331052798728234
1282.02 0.08664052798728193
1282.29 0.10331052798728234
1282.56 0.08998052798728205
1282.84 0.09664052798728216
1283.11 0.08998052798728205
1283.38 0.09998052798728228
1283.66 0.10664052798728195
1283.93 0.09998052798728228
1284.2 0.09331052798728211
1284.47 0.10331052798728234
1284.75 0.12331052798728236
1285.02 0.1199805279872823
1285.29 0.12331052798728236
1285.56 0.09664052798728216
1285.84 0.08331052798728232
1286.11 0.10331052798728234
1286.38 0.11331052798728213
1286.65 0.10664052798728195
1286.93 0.10664052798728195
1287.2 0.10664052798728195
1287.47 0.10331052798728234
1287.74 0.10331052798728234
1288.02 0.09664052798728216
1288.29 0.08998052798728205
1288.56 0.08664052798728193
1288.84 0.08331052798728232
1289.11 0.10331052798728234
1289.38 0.09331052798728211
1289.65 0.09664052798728216
1289.92 0.11331052798728213
1290.2 0.10664052798728195
1290.47 0.08331052798728232
1290.74 0.10331052798728234
1291.02 0.10998052798728207
1291.29 0.12664052798728198
1291.56 0.08331052798728232
1291.83 0.09664052798728216
1292.1 0.08998052798728205
1292.38 0.09998052798728228
1292.65 0.11664052798728218
1292.92 0.11331052798728213
1293.19 0.13998052798728233
1293.47 0.08331052798728232
1293.74 0.1199805279872823
1294.01 0.10998052798728207
1294.28 0.08998052798728205
1294.56 0.1299805279872821
1294.83 0.10664052798728195
1295.1 0.10998052798728207
1295.37 0.11664052798728218
1295.64 0.10664052798728195
1295.92 0.1199805279872823
1296.19 0.12664052798728198
1296.46 0.11664052798728218
1296.73 0.09664052798728216
1297.0 0.11664052798728218
1297.28 0.08998052798728205
1297.55 0.11331052798728213
1297.82 0.1299805279872821
1298.09 0.10998052798728207
1298.36 0.10998052798728207
1298.64 0.10998052798728207
1298.91 0.1199805279872823
1299.18 0.10998052798728207
1299.45 0.10664052798728195
1299.72 0.13331052798728216
1300.0 0.12331052798728236
1300.27 0.09998052798728228
1300.54 0.10998052798728207
1300.81 0.10664052798728195
1301.08 0.12331052798728236
1301.36 0.146640527987282
1301.63 0.10998052798728207
1301.9 0.1199805279872823
1302.17 0.11331052798728213
1302.44 0.12331052798728236
1302.71 0.11664052798728218
1302.99 0.10664052798728195
1303.26 0.12664052798728198
1303.53 0.09998052798728228
1303.8 0.1299805279872821
1304.07 0.09998052798728228
1304.35 0.10998052798728207
1304.62 0.10998052798728207
1304.89 0.10331052798728234
1305.16 0.12331052798728236
1305.43 0.11331052798728213
1305.7 0.13331052798728216
1305.98 0.11331052798728213
1306.25 0.12664052798728198
1306.52 0.11331052798728213
1306.79 0.11664052798728218
1307.06 0.10331052798728234
1307.33 0.1299805279872821
1307.61 0.1299805279872821
1307.88 0.09998052798728228
1308.15 0.10664052798728195
1308.42 0.10331052798728234
1308.69 0.10664052798728195
1308.96 0.10331052798728234
1309.24 0.14331052798728194
1309.51 0.10998052798728207
1309.78 0.10664052798728195
1310.05 0.10998052798728207
1310.32 0.12331052798728236
1310.59 0.10331052798728234
1310.86 0.10998052798728207
1311.14 0.10998052798728207
1311.41 0.1199805279872823
1311.68 0.11331052798728213
1311.95 0.1299805279872821
1312.22 0.09664052798728216
1312.49 0.11331052798728213
1312.76 0.1199805279872823
1313.03 0.11331052798728213
1313.31 0.10664052798728195
1313.58 0.08998052798728205
1313.85 0.12331052798728236
1314.12 0.1199805279872823
1314.39 0.12331052798728236
1314.66 0.11664052798728218
1314.93 0.12331052798728236
1315.2 0.15998052798728235
1315.47 0.1299805279872821
1315.75 0.10331052798728234
1316.02 0.10664052798728195
1316.29 0.1366405279872822
1316.56 0.09998052798728228
1316.83 0.12331052798728236
1317.1 0.10664052798728195
1317.37 0.10998052798728207
1317.64 0.09664052798728216
1317.91 0.10664052798728195
1318.19 0.12331052798728236
1318.46 0.11331052798728213
1318.73 0.10998052798728207
1319.0 0.10664052798728195
1319.27 0.10331052798728234
1319.54 0.11664052798728218
1319.81 0.09664052798728216
1320.08 0.12664052798728198
1320.35 0.10664052798728195
1320.63 0.08664052798728193
1320.9 0.10664052798728195
1321.17 0.08998052798728205
1321.44 0.09664052798728216
1321.71 0.11331052798728213
1321.98 0.12331052798728236
1322.25 0.1299805279872821
1322.52 0.13331052798728216
1322.79 0.12664052798728198
1323.06 0.12331052798728236
1323.33 0.08664052798728193
1323.6 0.09998052798728228
1323.88 0.12664052798728198
1324.15 0.11664052798728218
1324.42 0.09998052798728228
1324.69 0.10664052798728195
1324.96 0.11331052798728213
1325.23 0.13331052798728216
1325.5 0.12331052798728236
1325.77 0.09331052798728211
1326.04 0.11664052798728218
1326.31 0.08664052798728193
1326.58 0.10998052798728207
1326.85 0.10998052798728207
1327.12 0.09664052798728216
1327.39 0.09998052798728228
1327.67 0.09998052798728228
1327.94 0.10998052798728207
1328.21 0.08998052798728205
1328.48 0.11664052798728218
1328.75 0.13331052798728216
1329.02 0.10664052798728195
1329.29 0.11331052798728213
1329.56 0.10998052798728207
1329.83 0.11331052798728213
1330.1 0.10664052798728195
1330.37 0.12331052798728236
1330.64 0.10664052798728195
1330.91 0.11331052798728213
1331.18 0.10664052798728195
1331.45 0.07998052798728227
1331.72 0.11664052798728218
1331.99 0.10664052798728195
1332.26 0.1299805279872821
1332.53 0.10331052798728234
1332.8 0.12331052798728236
1333.07 0.10998052798728207
1333.34 0.11664052798728218
1333.61 0.1199805279872823
1333.88 0.1199805279872823
1334.15 0.12664052798728198
1334.42 0.12331052798728236
1334.69 0.13331052798728216
1334.97 0.11664052798728218
1335.24 0.10664052798728195
1335.51 0.10664052798728195
1335.78 0.1199805279872823
1336.04 0.10998052798728207
1336.31 0.11664052798728218
1336.59 0.09664052798728216
1336.86 0.10331052798728234
1337.13 0.10664052798728195
1337.4 0.10998052798728207
1337.67 0.1199805279872823
1337.94 0.09331052798728211
1338.21 0.10998052798728207
1338.48 0.12331052798728236
1338.75 0.09331052798728211
1339.02 0.13331052798728216
1339.29 0.09998052798728228
1339.56 0.11664052798728218
1339.83 0.10664052798728195
1340.1 0.10998052798728207
1340.37 0.11664052798728218
1340.64 0.11664052798728218
1340.91 0.10331052798728234
1341.18 0.12331052798728236
1341.45 0.10331052798728234
1341.71 0.10998052798728207
1341.98 0.11664052798728218
1342.25 0.1199805279872823
1342.53 0.11664052798728218
1342.8 0.1299805279872821
1343.06 0.10331052798728234
1343.33 0.09998052798728228
1343.6 0.10331052798728234
1343.87 0.12664052798728198
1344.14 0.12331052798728236
1344.41 0.10331052798728234
1344.68 0.09998052798728228
1344.95 0.11664052798728218
1345.22 0.09998052798728228
1345.49 0.10331052798728234
1345.76 0.09998052798728228
1346.03 0.08998052798728205
1346.3 0.10998052798728207
1346.57 0.1199805279872823
1346.84 0.09331052798728211
1347.11 0.11664052798728218
1347.38 0.09664052798728216
1347.65 0.10664052798728195
1347.92 0.1199805279872823
1348.19 0.10331052798728234
1348.46 0.09998052798728228
1348.73 0.10664052798728195
1349.0 0.08331052798728232
1349.27 0.10998052798728207
1349.54 0.12664052798728198
1349.8 0.10664052798728195
1350.07 0.14998052798728212
1350.35 0.10664052798728195
1350.61 0.11331052798728213
1350.88 0.12664052798728198
1351.15 0.13331052798728216
1351.42 0.11664052798728218
1351.69 0.10664052798728195
1351.96 0.08331052798728232
1352.23 0.10331052798728234
1352.5 0.10998052798728207
1352.77 0.13998052798728233
1353.04 0.09998052798728228
1353.31 0.12331052798728236
1353.58 0.1199805279872823
1353.85 0.10664052798728195
1354.12 0.08331052798728232
1354.38 0.12331052798728236
1354.65 0.09998052798728228
1354.92 0.10331052798728234
1355.19 0.10664052798728195
1355.46 0.11664052798728218
1355.73 0.10998052798728207
1356.0 0.08998052798728205
1356.27 0.1299805279872821
1356.54 0.10998052798728207
1356.81 0.10998052798728207
1357.08 0.1299805279872821
1357.34 0.11664052798728218
1357.61 0.1299805279872821
1357.88 0.11331052798728213
1358.15 0.11664052798728218
1358.42 0.12664052798728198
1358.69 0.1299805279872821
1358.96 0.09664052798728216
1359.23 0.12664052798728198
1359.5 0.1199805279872823
1359.77 0.10664052798728195
1360.04 0.11331052798728213
1360.3 0.11664052798728218
1360.57 0.13331052798728216
1360.84 0.11664052798728218
1361.11 0.11664052798728218
1361.38 0.11664052798728218
1361.65 0.12331052798728236
1361.92 0.11664052798728218
1362.19 0.07998052798728227
1362.46 0.09331052798728211
1362.72 0.10331052798728234
1362.99 0.13998052798728233
1363.26 0.10998052798728207
1363.53 0.09331052798728211
1363.8 0.11331052798728213
1364.07 0.10998052798728207
1364.34 0.1199805279872823
1364.61 0.09998052798728228
1364.87 0.10998052798728207
1365.14 0.11331052798728213
1365.41 0.11331052798728213
1365.68 0.10998052798728207
1365.95 0.10998052798728207
1366.22 0.11664052798728218
1366.49 0.10664052798728195
1366.75 0.146640527987282
1367.02 0.09331052798728211
1367.29 0.1366405279872822
1367.56 0.11413701476666514
1367.83 0.11433512064176508
1368.1 0.11411883199803573
1368.37 0.11434791152919298
1368.63 0.11406598190248073
1368.9 0.11378314304036906
1369.17 0.11420732129647869
1369.44 0.11431595139236349
1369.71 0.11420685646197092
1369.98 0.11425224981071257
1370.25 0.11386292155137577
1370.51 0.11414640022469634
1370.78 0.1139890759317179
1371.05 0.114201488240516
1371.32 0.1142324807896493
1371.59 0.11401187969709213
1371.86 0.11413106990825471
1372.12 0.11411081099520713
1372.39 0.1141464836938093
1372.66 0.11410207604988985
1372.93 0.10664052798728195
1373.2 0.10331052798728234
1373.47 0.10331052798728234
1373.73 0.09998052798728228
1374.0 0.13331052798728216
1374.27 0.12664052798728198
1374.54 0.11331052798728213
1374.81 0.10331052798728234
1375.07 0.10664052798728195
1375.34 0.12331052798728236
1375.61 0.11664052798728218
1375.88 0.13998052798728233
1376.15 0.09998052798728228
1376.42 0.1299805279872821
1376.68 0.12664052798728198
1376.95 0.10664052798728195
1377.22 0.10998052798728207
1377.49 0.12331052798728236
1377.76 0.10664052798728195
1378.03 0.1199805279872823
1378.29 0.1199805279872823
1378.56 0.11331052798728213
1378.83 0.12664052798728198
1379.1 0.11331052798728213
1379.36 0.11331052798728213
1379.63 0.09998052798728228
1379.9 0.12664052798728198
1380.17 0.11664052798728218
1380.44 0.10664052798728195
1380.7 0.10664052798728195
1380.97 0.12664052798728198
1381.24 0.13331052798728216
1381.51 0.08998052798728205
1381.78 0.11331052798728213
1382.04 0.13998052798728233
1382.31 0.12664052798728198
1382.58 0.11331052798728213
1382.85 0.10331052798728234
1383.11 0.11331052798728213
1383.38 0.10998052798728207
1383.65 0.13998052798728233
1383.92 0.09331052798728211
1384.19 0.1299805279872821
1384.45 0.1299805279872821
1384.72 0.09664052798728216
1384.99 0.1366405279872822
1385.26 0.10331052798728234
1385.52 0.10664052798728195
1385.79 0.10664052798728195
1386.06 0.09331052798728211
1386.33 0.1199805279872823
1386.6 0.10664052798728195
1386.86 0.09664052798728216
1387.13 0.11331052798728213
1387.4 0.14331052798728194
1387.66 0.10998052798728207
1387.93 0.09331052798728211
1388.2 0.12664052798728198
1388.47 0.10664052798728195
1388.74 0.11331052798728213
1389.0 0.10331052798728234
1389.27 0.11664052798728218
1389.54 0.09998052798728228
1389.81 0.11331052798728213
1390.07 0.1199805279872823
1390.34 0.07998052798728227
1390.61 0.11331052798728213
1390.88 0.12664052798728198
1391.14 0.12331052798728236
1391.41 0.10331052798728234
1391.68 0.11331052798728213
1391.94 0.11664052798728218
1392.21 0.08664052798728193
1392.48 0.10664052798728195
1392.75 0.11664052798728218
1393.02 0.11664052798728218
1393.28 0.11331052798728213
1393.55 0.12664052798728198
1393.82 0.11664052798728218
1394.08 0.10998052798728207
1394.35 0.09998052798728228
1394.62 0.10331052798728234
1394.89 0.10664052798728195
1395.15 0.11331052798728213
1395.42 0.12664052798728198
1395.69 0.11331052798728213
1395.95 0.10998052798728207
1396.22 0.08664052798728193
1396.49 0.1199805279872823
1396.76 0.09664052798728216
1397.02 0.12331052798728236
1397.29 0.10331052798728234
1397.56 0.12331052798728236
1397.82 0.11331052798728213
1398.09 0.13331052798728216
1398.36 0.11664052798728218
1398.62 0.10664052798728195
1398.89 0.09998052798728228
1399.16 0.08331052798728232
1399.43 0.11664052798728218
1399.69 0.09664052798728216
1399.96 0.10998052798728207
1400.23 0.10331052798728234
1400.49 0.07664052798728214
1400.76 0.10331052798728234
1401.03 0.10664052798728195
1401.3 0.10331052798728234
1401.56 0.13998052798728233
1401.83 0.10664052798728195
1402.09 0.11664052798728218
1402.36 0.12331052798728236
1402.63 0.12664052798728198
1402.89 0.10998052798728207
1403.16 0.12331052798728236
1403.43 0.12664052798728198
1403.7 0.10998052798728207
1403.96 0.1199805279872823
1404.23 0.11664052798728218
1404.5 0.10664052798728195
1404.76 0.09664052798728216
1405.03 0.11331052798728213
1405.3 0.12331052798728236
1405.56 0.1199805279872823
1405.83 0.12664052798728198
1406.1 0.10664052798728195
1406.36 0.11331052798728213
1406.63 0.10998052798728207
1406.9 0.1366405279872822
1407.16 0.09998052798728228
1407.43 0.11331052798728213
1407.7 0.11664052798728218
1407.96 0.10331052798728234
1408.23 0.10331052798728234
1408.5 0.11331052798728213
1408.76 0.12664052798728198
1409.03 0.1366405279872822
1409.29 0.1299805279872821
1409.56 0.08998052798728205
1409.83 0.13331052798728216
1410.09 0.1199805279872823
1410.36 0.08331052798728232
1410.63 0.12664052798728198
1410.89 0.09998052798728228
1411.16 0.12331052798728236
1411.43 0.07998052798728227
1411.69 0.09998052798728228
1411.96 0.10998052798728207
1412.23 0.12331052798728236
1412.49 0.1199805279872823
1412.76 0.09331052798728211
1413.02 0.1366405279872822
1413.29 0.09664052798728216
1413.56 0.12331052798728236
1413.82 0.10998052798728207
1414.09 0.1299805279872821
1414.36 0.10331052798728234
1414.62 0.10331052798728234
1414.89 0.13331052798728216
1415.16 0.1366405279872822
1415.42 0.09664052798728216
1415.69 0.1299805279872821
1415.95 0.13998052798728233
1416.22 0.12331052798728236
1416.48 0.10331052798728234
1416.75 0.11664052798728218
1417.02 0.11664052798728218
1417.28 0.11331052798728213
1417.55 0.08998052798728205
1417.82 0.1199805279872823
1418.08 0.11664052798728218
1418.35 0.10664052798728195
1418.61 0.10998052798728207
1418.88 0.10998052798728207
1419.15 0.10998052798728207
1419.41 0.11664052798728218
1419.68 0.10331052798728234
1419.94 0.10998052798728207
1420.21 0.11664052798728218
1420.48 0.11331052798728213
1420.74 0.12664052798728198
1421.01 0.13331052798728216
1421.27 0.11664052798728218
1421.54 0.10664052798728195
1421.81 0.10331052798728234
1422.07 0.1199805279872823
1422.34 0.1199805279872823
1422.6 0.11664052798728218
1422.87 0.1199805279872823
1423.13 0.09998052798728228
1423.4 0.1299805279872821
1423.67 0.12331052798728236
1423.93 0.1299805279872821
1424.2 0.12331052798728236
1424.46 0.13331052798728216
1424.73 0.09664052798728216
1424.99 0.09664052798728216
1425.26 0.11664052798728218
1425.53 0.12331052798728236
1425.79 0.08664052798728193
1426.06 0.08664052798728193
1426.32 0.146640527987282
1426.59 0.10664052798728195
1426.85 0.1199805279872823
1427.12 0.09998052798728228
1427.39 0.10331052798728234
1427.65 0.1199805279872823
1427.92 0.11664052798728218
1428.18 0.10998052798728207
1428.45 0.10331052798728234
1428.71 0.1199805279872823
1428.98 0.08664052798728193
1429.24 0.11331052798728213
1429.51 0.13331052798728216
1429.78 0.10331052798728234
1430.04 0.10998052798728207
1430.31 0.09998052798728228
1430.57 0.11331052798728213
1430.84 0.10664052798728195
1431.085 0.1052991470008479
1431.355 0.11196914700084808
1431.62 0.09362914700084805
1431.89 0.12196914700084809
1432.1550000000002 0.1036341470008481
1432.4250000000002 0.11696914700084797
1432.69 0.08696414700084791
1432.96 0.10196414700084803
1433.225 0.1136341470008481
1433.49 0.11529914700084813
1433.7649999999999 0.12529914700084815
1434.025 0.10196914700084807
1434.295 0.09696414700084792
1434.56 0.10362914700084806
1434.83 0.13029914700084805
1435.0949999999998 0.11696414700084816
1435.365 0.11863414700084822
1435.63 0.11696414700084816
1435.9 0.11529914700084813
1436.165 0.12196414700084805
1436.435 0.11029914700084824
1436.7 0.10863414700084821
1436.97 0.11529914700084813
1437.2350000000001 0.10863414700084799
1437.505 0.12362914700084808
1437.7649999999999 0.11196414700084804
1438.0349999999999 0.11696914700084797
1438.3 0.10862914700084796
1438.57 0.12696414700084796
1438.835 0.10862914700084796
1439.105 0.10696914700084796
1439.37 0.11863414700084822
1439.6399999999999 0.11196414700084827
1439.905 0.12863414700084824
1440.175 0.11696414700084794
1440.44 0.11029914700084802
1440.705 0.09696414700084814
1440.97 0.11862914700084819
1441.24 0.12863414700084802
1441.505 0.12363414700084811
1441.775 0.11529914700084813
1441.905 0.09863414700084798
1442.175 0.11862914700084796
1442.44 0.11029914700084802
1442.71 0.10529914700084812
1442.975 0.11529914700084813
1443.245 0.11196414700084804
1443.505 0.11696414700084816
1443.775 0.10196914700084807
1444.04 0.12529914700084815
1444.3049999999998 0.12029914700084803
1444.5749999999998 0.12196914700084809
1444.845 0.12529914700084815
1445.1100000000001 0.118634147000848
1445.375 0.11029914700084802
1445.6399999999999 0.1136341470008481
1445.905 0.12029914700084825
1446.1750000000002 0.12196914700084809
1446.44 0.10862914700084818
1446.71 0.12696414700084818
1446.975 0.1036341470008481
1447.245 0.12529914700084793
1447.51 0.11029914700084802
1447.775 0.09362914700084805
1448.04 0.12696414700084796
1448.31 0.12696414700084818
1448.5749999999998 0.10696414700084815
1448.84 0.10696914700084796
1449.11 0.12363414700084811
1449.375 0.10196914700084807
1449.64 0.11529914700084813
1449.9050000000002 0.10196414700084803
1450.1750000000002 0.12196914700084809
1450.44 0.10196914700084807
1450.71 0.12863414700084802
1450.975 0.11529914700084813
1451.24 0.12362914700084808
1451.505 0.10696414700084815
1451.77 0.1136341470008481
1452.04 0.11863414700084822
1452.3049999999998 0.10696414700084815
1452.57 0.1036341470008481
1452.84 0.12362914700084808
1453.105 0.118634147000848
1453.37 0.1286291470008482
1453.635 0.10696414700084815
1453.9050000000002 0.12196414700084805
1454.17 0.12029914700084803
1454.44 0.11196414700084804
1454.705 0.10029914700084801
1454.9650000000001 0.11696914700084797
1455.2350000000001 0.1136341470008481
1455.5 0.1136341470008481
1455.77 0.11029914700084824
1456.0349999999999 0.12029914700084803
1456.3049999999998 0.12029914700084803
1456.565 0.11196914700084808
1456.83 0.11529914700084813
1457.1 0.12196914700084809
1457.365 0.12363414700084811
1457.63 0.12029914700084825
1457.895 0.12363414700084811
1458.1599999999999 0.11196414700084804
1458.4299999999998 0.11696914700084797
1458.6950000000002 0.11696414700084816
1458.9650000000001 0.1036341470008481
1459.095 0.1136341470008481
1459.3600000000001 0.12696414700084796
1459.625 0.11029914700084802
1459.8899999999999 0.11863414700084822
1460.1599999999999 0.12029914700084803
1460.425 0.12196414700084805
1460.69 0.10029914700084801
1460.955 0.10529914700084812
1461.22 0.11696414700084816
1461.4850000000001 0.11196914700084808
1461.755 0.12529914700084815
1462.02 0.12363414700084811
1462.2849999999999 0.12363414700084811
1462.55 0.10863414700084799
1462.815 0.12529914700084793
1463.085 0.12362914700084808
1463.345 0.11029914700084824
1463.615 0.12696414700084818
1463.88 0.12863414700084824
1464.145 0.13863414700084825
1464.415 0.12529914700084815
1464.68 0.13363414700084814
1464.94 0.13363414700084814
1465.21 0.12196914700084809
1465.475 0.1336291470008481
1465.745 0.13029914700084805
1466.005 0.14196414700084808
1466.27 0.12696414700084796
1466.54 0.12696414700084818
1466.8049999999998 0.12863414700084802
1467.07 0.12029914700084803
1467.335 0.126969147000848
1467.6 0.12196414700084805
1467.8649999999998 0.1319691470008481
1468.1350000000002 0.11196914700084808
1468.395 0.13029914700084805
1468.66 0.11529914700084813
1468.93 0.12863414700084802
1469.1950000000002 0.10196914700084807
1469.46 0.11196414700084804
1469.725 0.10362914700084806
1469.99 0.11696414700084816
1470.255 0.11862914700084819
1470.52 0.11029914700084802
1470.7849999999999 0.10863414700084821
1471.05 0.11696414700084816
1471.32 0.12196414700084805
1471.58 0.12696414700084818
1471.85 0.11529914700084791
1472.115 0.12363414700084811
1472.38 0.09862914700084817
1472.645 0.13363414700084814
1472.9099999999999 0.12863414700084802
1473.1750000000002 0.12363414700084811
1473.4450000000002 0.11863414700084822
1473.705 0.12196414700084805
1473.97 0.136969147000848
1474.2350000000001 0.12529914700084815
1474.505 0.13029914700084827
1474.7649999999999 0.11696414700084816
1475.03 0.12529914700084815
1475.3 0.126969147000848
1475.565 0.1336341470008479
1475.83 0.11696414700084816
1476.095 0.10696414700084815
1476.225 0.10196414700084826
1476.49 0.13196414700084808
1476.76 0.11696414700084794
1477.02 0.12696414700084818
1477.2849999999999 0.118634147000848
1477.5549999999998 0.12029914700084803
1477.815 0.11029914700084802
1478.08 0.11196414700084804
1478.345 0.11362914700084807
1478.615 0.11362914700084807
1478.875 0.11362914700084807
1479.1399999999999 0.11196414700084804
1479.4099999999999 0.12029914700084803
1479.6750000000002 0.10863414700084799
1479.935 0.14529914700084817
1480.205 0.11696414700084816
1480.47 0.11362914700084807
1480.73 0.12362914700084808
1480.995 0.11029914700084824
1481.2649999999999 0.1519641470008481
1481.525 0.12362914700084808
1481.79 0.1369641470008482
1482.06 0.12029914700084803
1482.3249999999998 0.12029914700084825
1482.585 0.11362914700084807
1482.85 0.12362914700084808
1483.12 0.12196914700084809
1483.38 0.12029914700084825
1483.645 0.11029914700084824
1483.915 0.11196914700084808
1484.1750000000002 0.11362914700084807
1484.44 0.11862914700084796
1484.705 0.10862914700084818
1484.97 0.11529914700084813
1485.2350000000001 0.11863414700084822
1485.5 0.12696414700084818
1485.7649999999999 0.11196414700084827
1486.03 0.11696914700084797
1486.295 0.12863414700084802
1486.56 0.12029914700084803
1486.8249999999998 0.11529914700084813
1487.09 0.118634147000848
1487.355 0.11029914700084802
1487.615 0.12363414700084811
1487.885 0.12029914700084803
1488.15 0.12196914700084809
1488.41 0.1319691470008481
1488.6750000000002 0.1336341470008479
1488.9450000000002 0.12029914700084803
1489.205 0.13863414700084825
1489.47 0.12029914700084803
1489.7350000000001 0.12363414700084811
1489.995 0.09529914700084811
1490.2649999999999 0.12362914700084808
1490.53 0.12029914700084825
1490.79 0.13029914700084805
1491.06 0.118634147000848
1491.325 0.12196414700084827
1491.585 0.12863414700084824
1491.85 0.1052991470008479
1492.115 0.1369641470008482
1492.38 0.12696914700084821
1492.645 0.12696414700084818
1492.775 0.12529914700084815
1493.04 0.12529914700084815
1493.3049999999998 0.11196414700084804
1493.5700000000002 0.12029914700084803
1493.83 0.1136341470008481
1494.095 0.12696414700084818
1494.3600000000001 0.12863414700084824
1494.625 0.12863414700084824
1494.8899999999999 0.1136341470008481
1495.155 0.12029914700084825
1495.415 0.1286291470008482
1495.685 0.13529914700084794
1495.95 0.10529914700084812
1496.21 0.11362914700084807
1496.475 0.118634147000848
1496.74 0.13863414700084825
1497.005 0.12529914700084793
1497.27 0.128629147000848
1497.53 0.1136341470008481
1497.795 0.12363414700084811
1498.06 0.11862914700084819
1498.3249999999998 0.11696914700084819
1498.59 0.1369641470008482
1498.855 0.1336341470008479
1499.115 0.11529914700084813
1499.38 0.13529914700084794
1499.645 0.12696414700084818
1499.91 0.11196414700084804
1500.17 0.12196914700084809
1500.435 0.10362914700084806
1500.7 0.12529914700084815
1500.9650000000001 0.10862914700084818
1501.23 0.1136341470008481
1501.495 0.11862914700084796
1501.755 0.13029914700084805
1502.02 0.11029914700084824
1502.2849999999999 0.11696414700084794
1502.55 0.12863414700084802
1502.815 0.13529914700084794
1503.0749999999998 0.14029914700084806
1503.34 0.13029914700084805
1503.6 0.11529914700084791
1503.87 0.11696414700084816
1504.135 0.11529914700084813
1504.395 0.11696414700084816
1504.66 0.12029914700084803
1504.92 0.12529914700084793
1505.19 0.10862914700084818
1505.455 0.11696914700084819
1505.7150000000001 0.13196414700084808
1505.98 0.11696414700084794
1506.24 0.10863414700084821
1506.505 0.1136341470008481
1506.7649999999999 0.12363414700084811
1507.0349999999999 0.12529914700084815
1507.3 0.12196414700084827
1507.56 0.12029914700084803
1507.825 0.14029914700084806
1508.085 0.10362914700084806
1508.35 0.12363414700084811
1508.615 0.13196414700084808
1508.88 0.118634147000848
1509.145 0.12529914700084793
1509.275 0.12029914700084803
1509.5349999999999 0.11529914700084813
1509.8 0.12196914700084809
1510.06 0.12029914700084803
1510.33 0.13029914700084805
1510.5900000000001 0.12029914700084803
1510.855 0.13029914700084805
1511.12 0.12696414700084818
1511.38 0.13029914700084805
1511.645 0.13029914700084827
1511.905 0.12696914700084821
1512.1750000000002 0.13196414700084808
1512.435 0.1319691470008481
1512.7 0.12196414700084827
1512.96 0.1336291470008481
1513.225 0.13529914700084816
1513.49 0.11529914700084813
1513.75 0.13196414700084808
1514.0149999999999 0.12363414700084811
1514.275 0.12863414700084802
1514.545 0.12362914700084808
1514.8049999999998 0.14196914700084812
1515.07 0.10696414700084815
1515.33 0.1336341470008479
1515.5949999999998 0.12029914700084803
1515.86 0.12362914700084808
1516.12 0.13029914700084805
1516.3850000000002 0.12362914700084808
1516.65 0.13029914700084827
1516.915 0.11696414700084816
1517.1750000000002 0.12196914700084809
1517.44 0.13529914700084816
1517.7 0.1336291470008481
1517.9650000000001 0.12363414700084811
1518.225 0.12029914700084803
1518.49 0.13196414700084808
1518.75 0.118634147000848
1519.02 0.12196914700084809
1519.28 0.12529914700084815
1519.545 0.1319691470008481
1519.8049999999998 0.12196414700084827
1520.07 0.1469641470008482
1520.33 0.1319691470008481
1520.5949999999998 0.118634147000848
1520.855 0.13196414700084808
1521.12 0.12696414700084796
1521.38 0.14029914700084806
1521.645 0.10696914700084796
1521.905 0.12529914700084815
1522.1750000000002 0.11529914700084813
1522.435 0.12029914700084803
1522.7 0.13696914700084822
1522.9650000000001 0.11696414700084816
1523.225 0.12196414700084805
1523.49 0.13696414700084797
1523.75 0.12696914700084821
1524.0149999999999 0.1286291470008482
1524.275 0.13029914700084805
1524.54 0.12696414700084818
1524.8 0.13863414700084803
1525.065 0.14196414700084808
1525.33 0.156964147000848
1525.595 0.13029914700084805
1525.725 0.12863414700084824
1525.9850000000001 0.12696414700084818
1526.245 0.12196414700084805
1526.51 0.10696414700084815
1526.77 0.12363414700084811
1527.0349999999999 0.11029914700084802
1527.295 0.12863414700084802
1527.56 0.13696414700084797
1527.82 0.14529914700084795
1528.085 0.1436291470008481
1528.345 0.1319691470008481
1528.6100000000001 0.12696414700084796
1528.87 0.12529914700084815
1529.135 0.13196414700084808
1529.395 0.148629147000848
1529.66 0.12529914700084815
1529.92 0.13696414700084797
1530.18 0.1319691470008481
1530.4450000000002 0.13863414700084803
1530.71 0.12529914700084815
1530.975 0.13363414700084814
1531.2350000000001 0.14196914700084812
1531.5 0.12362914700084808
1531.76 0.13363414700084814
1532.025 0.1369641470008482
1532.2849999999999 0.11029914700084802
1532.55 0.13029914700084827
1532.81 0.12529914700084815
1533.0749999999998 0.1436291470008481
1533.335 0.13029914700084805
1533.5949999999998 0.13363414700084814
1533.86 0.12363414700084811
1534.12 0.138629147000848
1534.3850000000002 0.13363414700084814
1534.645 0.148629147000848
1534.91 0.15029914700084807
1535.17 0.12362914700084808
1535.435 0.12029914700084825
1535.6950000000002 0.14863414700084804
1535.96 0.128629147000848
1536.22 0.12696914700084821
1536.48 0.13029914700084805
1536.745 0.13029914700084805
1537.005 0.13529914700084816
1537.27 0.11696414700084816
1537.53 0.13029914700084805
1537.79 0.12863414700084824
1538.0549999999998 0.1136341470008481
1538.315 0.13029914700084805
1538.58 0.12196414700084805
1538.8400000000001 0.12863414700084824
1539.105 0.13529914700084794
1539.365 0.12696414700084796
1539.63 0.14529914700084817
1539.8899999999999 0.12363414700084811
1540.15 0.12529914700084793
1540.415 0.11529914700084813
1540.675 0.1319691470008481
1540.94 0.12196914700084809
1541.2 0.13029914700084827
1541.46 0.14029914700084806
1541.725 0.13029914700084805
1541.9850000000001 0.12696414700084818
1542.115 0.12696414700084818
1542.38 0.138629147000848
1542.6399999999999 0.13029914700084805
1542.905 0.12696414700084796
1543.165 0.13196414700084808
1543.425 0.12696414700084796
1543.69 0.14029914700084806
1543.95 0.14196414700084808
1544.21 0.128629147000848
1544.475 0.12696414700084796
1544.7350000000001 0.1136341470008481
1545.0 0.13862914700084822
1545.26 0.14862914700084823
1545.52 0.14196414700084808
1545.7849999999999 0.1336291470008481
1546.045 0.1436291470008481
1546.3049999999998 0.1336291470008481
1546.565 0.1519641470008481
1546.8249999999998 0.11696414700084816
1547.09 0.14196414700084808
1547.35 0.13363414700084814
1547.615 0.15029914700084807
1547.875 0.15029914700084807
1548.135 0.13529914700084816
1548.4 0.13363414700084814
1548.66 0.13196414700084808
1548.92 0.14529914700084795
1549.185 0.13863414700084825
1549.4450000000002 0.14863414700084826
1549.71 0.12196914700084809
1549.97 0.14529914700084817
1550.23 0.1519641470008481
1550.495 0.13529914700084816
1550.755 0.14529914700084817
1551.0149999999999 0.12529914700084815
1551.275 0.14363414700084814
1551.5349999999999 0.13029914700084827
1551.795 0.14029914700084806
1552.06 0.13529914700084794
1552.32 0.13529914700084816
1552.585 0.12363414700084811
1552.8449999999998 0.12196914700084809
1553.105 0.14529914700084817
1553.37 0.12529914700084815
1553.63 0.12029914700084803
1553.8899999999999 0.14196414700084808
1554.155 0.1286291470008482
1554.415 0.12529914700084815
1554.6750000000002 0.13863414700084803
1554.935 0.1319641470008483
1555.1950000000002 0.14196414700084808
1555.455 0.14696414700084798
1555.72 0.12696414700084796
1555.98 0.13529914700084794
1556.24 0.13696914700084822
1556.505 0.14529914700084795
1556.7649999999999 0.13363414700084814
1557.025 0.15029914700084807
1557.29 0.14029914700084806
1557.55 0.13363414700084814
1557.675 0.13696914700084822
1557.94 0.14863414700084826
1558.2 0.128629147000848
1558.46 0.15529914700084818
1558.72 0.13529914700084816
1558.9850000000001 0.13862914700084822
1559.245 0.14863414700084804
1559.505 0.12696414700084818
1559.77 0.11696914700084797
1560.03 0.13863414700084803
1560.2849999999999 0.14529914700084795
1560.55 0.14029914700084806
1560.81 0.1336341470008479
1561.07 0.13696914700084822
1561.335 0.12363414700084811
1561.595 0.14196414700084808
1561.855 0.136969147000848
1562.12 0.12196914700084809
1562.38 0.13529914700084816
1562.635 0.128629147000848
1562.895 0.12029914700084803
1563.16 0.14029914700084806
1563.42 0.14363414700084792
1563.685 0.13529914700084816
1563.9450000000002 0.14196414700084808
1564.205 0.13363414700084814
1564.4650000000001 0.13863414700084825
1564.725 0.13529914700084816
1564.9850000000001 0.14363414700084814
1565.245 0.136969147000848
1565.505 0.14029914700084828
1565.77 0.1519641470008481
1566.03 0.13696914700084822
1566.29 0.1319691470008481
1566.5549999999998 0.14196414700084808
1566.81 0.14029914700084828
1567.07 0.148629147000848
1567.335 0.13863414700084803
1567.5949999999998 0.13029914700084805
1567.855 0.13363414700084814
1568.115 0.1519641470008481
1568.38 0.1369641470008482
1568.635 0.1369641470008482
1568.895 0.1369641470008482
1569.1550000000002 0.14529914700084817
1569.42 0.1436291470008481
1569.68 0.14363414700084814
1569.94 0.13863414700084803
1570.2 0.12363414700084811
1570.46 0.14529914700084795
1570.72 0.12196414700084827
1570.9850000000001 0.1369641470008482
1571.245 0.146969147000848
1571.29 0.1439577660144139
1571.55 0.10395776601441387
1571.81 0.14728776601441396
1572.08 0.10728776601441392
1572.34 0.14728776601441396
1572.6 0.12061776601441421
1572.86 0.1439577660144139
1573.13 0.11728776601441415
1573.39 0.14728776601441396
1573.65 0.12395776601441387
1573.91 0.13728776601441417
1574.18 0.11728776601441415
1574.44 0.12395776601441387
1574.7 0.12728776601441394
1574.96 0.14061776601441422
1575.23 0.1139577660144141
1575.49 0.13395776601441411
1575.75 0.13728776601441417
1576.01 0.130617766014414
1576.28 0.13728776601441417
1576.54 0.130617766014414
1576.8 0.13395776601441411
1577.06 0.1572877660144142
1577.33 0.1139577660144141
1577.59 0.13728776601441417
1577.85 0.13395776601441411
1578.11 0.13728776601441417
1578.37 0.14728776601441396
1578.64 0.130617766014414
1578.9 0.16061776601441424
1579.16 0.13395776601441411
1579.42 0.11061776601441398
1579.69 0.14061776601441422
1579.95 0.12395776601441387
1580.21 0.12395776601441387
1580.47 0.130617766014414
1580.73 0.130617766014414
1581.0 0.13395776601441411
1581.26 0.14061776601441422
1581.52 0.11728776601441415
1581.78 0.15395776601441413
1582.05 0.14728776601441396
1582.31 0.13395776601441411
1582.57 0.15395776601441413
1582.83 0.1139577660144141
1583.09 0.14061776601441422
1583.36 0.130617766014414
1583.62 0.13395776601441411
1583.88 0.13395776601441411
1584.14 0.1139577660144141
1584.4 0.11728776601441415
1584.67 0.14061776601441422
1584.93 0.11728776601441415
1585.19 0.14061776601441422
1585.45 0.150617766014414
1585.71 0.13395776601441411
1585.98 0.14728776601441396
1586.24 0.12061776601441421
1586.5 0.15395776601441413
1586.76 0.1439577660144139
1587.02 0.1139577660144141
1587.28 0.12061776601441421
1587.55 0.12728776601441394
1587.81 0.1139577660144141
1588.07 0.12728776601441394
1588.33 0.12395776601441387
1588.59 0.14728776601441396
1588.86 0.12395776601441387
1589.12 0.14061776601441422
1589.38 0.130617766014414
1589.64 0.1439577660144139
1589.9 0.12728776601441394
1590.17 0.11061776601441398
1590.43 0.12728776601441394
1590.69 0.13395776601441411
1590.95 0.11061776601441398
1591.21 0.130617766014414
1591.47 0.13395776601441411
1591.74 0.09395776601441408
1592.0 0.15395776601441413
1592.26 0.1139577660144141
1592.52 0.14061776601441422
1592.78 0.12395776601441387
1593.04 0.11728776601441415
1593.31 0.14061776601441422
1593.57 0.10728776601441392
1593.83 0.13395776601441411
1594.09 0.130617766014414
1594.35 0.14061776601441422
1594.61 0.12728776601441394
1594.87 0.16061776601441424
1595.14 0.12728776601441394
1595.4 0.1439577660144139
1595.66 0.13728776601441417
1595.92 0.12728776601441394
1596.18 0.150617766014414
1596.44 0.1439577660144139
1596.7 0.13395776601441411
1596.97 0.14061776601441422
1597.23 0.130617766014414
1597.49 0.15395776601441413
1597.75 0.14728776601441396
1598.01 0.13728776601441417
1598.27 0.14728776601441396
1598.53 0.12395776601441387
1598.8 0.11061776601441398
1599.06 0.13728776601441417
1599.32 0.13395776601441411
1599.58 0.130617766014414
1599.84 0.13395776601441411
1600.1 0.14061776601441422
1600.36 0.12061776601441421
1600.62 0.14728776601441396
1600.89 0.13728776601441417
1601.15 0.11728776601441415
1601.41 0.14061776601441422
1601.67 0.14061776601441422
1601.93 0.10395776601441387
1602.19 0.1439577660144139
1602.45 0.11728776601441415
1602.71 0.1139577660144141
1602.98 0.13395776601441411
1603.24 0.13395776601441411
1603.5 0.130617766014414
1603.76 0.15395776601441413
1604.02 0.1139577660144141
1604.28 0.14061776601441422
1604.54 0.1439577660144139
1604.8 0.12395776601441387
1605.06 0.12061776601441421
1605.32 0.12061776601441421
1605.59 0.1439577660144139
1605.85 0.130617766014414
1606.11 0.130617766014414
1606.37 0.12395776601441387
1606.63 0.12728776601441394
1606.89 0.1439577660144139
1607.15 0.12395776601441387
1607.41 0.11728776601441415
1607.67 0.15395776601441413
1607.93 0.13728776601441417
1608.19 0.1439577660144139
1608.46 0.15395776601441413
1608.72 0.14061776601441422
1608.98 0.14728776601441396
1609.24 0.14061776601441422
1609.5 0.13395776601441411
1609.76 0.13395776601441411
1610.02 0.1439577660144139
1610.28 0.14061776601441422
1610.54 0.130617766014414
1610.8 0.13395776601441411
1611.06 0.14728776601441396
1611.32 0.12728776601441394
1611.58 0.15395776601441413
1611.84 0.1439577660144139
1612.11 0.12395776601441387
1612.37 0.14061776601441422
1612.63 0.13395776601441411
1612.89 0.1439577660144139
1613.15 0.11728776601441415
1613.41 0.16061776601441424
1613.67 0.1439577660144139
1613.93 0.14061776601441422
1614.19 0.12061776601441421
1614.45 0.1439577660144139
1614.71 0.1439577660144139
1614.97 0.12728776601441394
1615.23 0.13395776601441411
1615.49 0.12061776601441421
1615.75 0.13395776601441411
1616.01 0.15395776601441413
1616.27 0.12061776601441421
1616.54 0.1439577660144139
1616.8 0.130617766014414
1617.06 0.1572877660144142
1617.32 0.12061776601441421
1617.58 0.12395776601441387
1617.84 0.12728776601441394
1618.1 0.16395776601441392
1618.36 0.11728776601441415
1618.62 0.12728776601441394
1618.88 0.13728776601441417
1619.14 0.130617766014414
1619.4 0.1439577660144139
1619.66 0.14061776601441422
1619.92 0.13395776601441411
1620.18 0.10728776601441392
1620.44 0.130617766014414
1620.7 0.12728776601441394
1620.96 0.130617766014414
1621.22 0.14061776601441422
1621.48 0.13728776601441417
1621.74 0.130617766014414
1622.0 0.1439577660144139
1622.26 0.15395776601441413
1622.52 0.11728776601441415
1622.78 0.14728776601441396
1623.04 0.15395776601441413
1623.3 0.11728776601441415
1623.56 0.13728776601441417
1623.82 0.12395776601441387
1624.08 0.16728776601441397
1624.34 0.14728776601441396
1624.6 0.130617766014414
1624.86 0.12061776601441421
1625.12 0.1439577660144139
1625.38 0.1139577660144141
1625.64 0.12061776601441421
1625.9 0.130617766014414
1626.16 0.13728776601441417
1626.42 0.14728776601441396
1626.68 0.14061776601441422
1626.94 0.150617766014414
1627.2 0.12395776601441387
1627.46 0.12395776601441387
1627.72 0.12061776601441421
1627.98 0.12728776601441394
1628.24 0.1439577660144139
1628.5 0.13728776601441417
1628.76 0.16061776601441424
1629.02 0.12061776601441421
1629.28 0.150617766014414
1629.54 0.10728776601441392
1629.8 0.11728776601441415
1630.06 0.13728776601441417
1630.32 0.13728776601441417
1630.58 0.1439577660144139
1630.84 0.12728776601441394
1631.1 0.12395776601441387
1631.36 0.14728776601441396
1631.62 0.130617766014414
1631.88 0.130617766014414
1632.14 0.1139577660144141
1632.4 0.1439577660144139
1632.66 0.11728776601441415
1632.92 0.130617766014414
1633.18 0.09395776601441408
1633.44 0.13395776601441411
1633.7 0.14061776601441422
1633.96 0.1139577660144141
1634.22 0.12395776601441387
1634.47 0.12061776601441421
1634.74 0.12728776601441394
1634.99 0.13728776601441417
1635.25 0.10728776601441392
1635.51 0.11061776601441398
1635.77 0.1139577660144141
1636.03 0.15395776601441413
1636.29 0.1572877660144142
1636.55 0.14728776601441396
1636.81 0.11728776601441415
1637.07 0.14061776601441422
1637.33 0.11728776601441415
1637.59 0.1139577660144141
1637.85 0.13395776601441411
1638.11 0.13728776601441417
1638.37 0.13395776601441411
1638.63 0.13728776601441417
1638.89 0.12395776601441387
1639.15 0.10728776601441392
1639.4 0.1439577660144139
1639.66 0.12395776601441387
1639.92 0.150617766014414
1640.18 0.12061776601441421
1640.44 0.13728776601441417
1640.7 0.09395776601441408
1640.96 0.11728776601441415
1641.22 0.1439577660144139
1641.48 0.130617766014414
1641.74 0.130617766014414
1642.0 0.10061776601441419
1642.26 0.13728776601441417
1642.52 0.12395776601441387
1642.78 0.150617766014414
1643.03 0.12395776601441387
1643.29 0.1439577660144139
1643.55 0.13728776601441417
1643.81 0.13728776601441417
1644.07 0.14061776601441422
1644.33 0.10728776601441392
1644.59 0.12728776601441394
1644.85 0.14728776601441396
1645.11 0.11728776601441415
1645.37 0.12395776601441387
1645.62 0.14061776601441422
1645.88 0.11061776601441398
1646.14 0.14061776601441422
1646.4 0.12728776601441394
1646.66 0.150617766014414
1646.92 0.130617766014414
1647.18 0.10728776601441392
1647.44 0.12061776601441421
1647.7 0.12061776601441421
1647.96 0.13395776601441411
1648.21 0.130617766014414
1648.47 0.12061776601441421
1648.73 0.13395776601441411
1648.99 0.12061776601441421
1649.25 0.10728776601441392
1649.51 0.13395776601441411
1649.77 0.13395776601441411
1650.03 0.12728776601441394
1650.28 0.12395776601441387
1650.54 0.150617766014414
1650.8 0.13728776601441417
1651.06 0.11728776601441415
1651.32 0.1572877660144142
1651.58 0.130617766014414
1651.84 0.12061776601441421
1652.1 0.10061776601441419
1652.36 0.1139577660144141
1652.61 0.13395776601441411
1652.87 0.15395776601441413
1653.13 0.12728776601441394
1653.39 0.12395776601441387
1653.65 0.130617766014414
1653.91 0.12728776601441394
1654.17 0.11728776601441415
1654.42 0.13728776601441417
1654.68 0.13728776601441417
1654.94 0.12728776601441394
1655.2 0.12728776601441394
1655.46 0.14061776601441422
1655.72 0.14061776601441422
1655.97 0.13395776601441411
1656.23 0.10395776601441387
1656.49 0.15395776601441413
1656.75 0.1139577660144141
1657.01 0.130617766014414
1657.27 0.13395776601441411
1657.53 0.12395776601441387
1657.78 0.12395776601441387
1658.04 0.1572877660144142
1658.3 0.14728776601441396
1658.56 0.12061776601441421
1658.82 0.12395776601441387
1659.08 0.12395776601441387
1659.33 0.10395776601441387
1659.59 0.150617766014414
1659.85 0.130617766014414
1660.11 0.1139577660144141
1660.37 0.14061776601441422
1660.63 0.13728776601441417
1660.89 0.130617766014414
1661.14 0.12061776601441421
1661.4 0.130617766014414
1661.66 0.12395776601441387
1661.92 0.1139577660144141
1662.18 0.11728776601441415
1662.43 0.11728776601441415
1662.69 0.1439577660144139
1662.95 0.12061776601441421
1663.21 0.10728776601441392
1663.47 0.130617766014414
1663.73 0.1139577660144141
1663.98 0.14061776601441422
1664.24 0.13728776601441417
1664.5 0.1139577660144141
1664.76 0.13728776601441417
1665.02 0.130617766014414
1665.27 0.12728776601441394
1665.53 0.14728776601441396
1665.79 0.11728776601441415
1666.05 0.12728776601441394
1666.31 0.12728776601441394
1666.56 0.13395776601441411
1666.82 0.1139577660144141
1667.08 0.150617766014414
1667.34 0.11061776601441398
1667.59 0.1139577660144141
1667.85 0.11728776601441415
1668.11 0.13728776601441417
1668.37 0.10061776601441419
1668.63 0.11728776601441415
1668.88 0.130617766014414
1669.14 0.12728776601441394
1669.4 0.13395776601441411
1669.66 0.13728776601441417
1669.92 0.13728776601441417
1670.17 0.09728776601441413
1670.43 0.130617766014414
1670.69 0.130617766014414
1670.95 0.10395776601441387
1671.2 0.1439577660144139
1671.46 0.13395776601441411
1671.72 0.1139577660144141
1671.98 0.11728776601441415
1672.24 0.12395776601441387
1672.49 0.12395776601441387
1672.75 0.12061776601441421
1673.01 0.11728776601441415
1673.27 0.13395776601441411
1673.52 0.10728776601441392
1673.78 0.11728776601441415
1674.04 0.1139577660144141
1674.3 0.10395776601441387
1674.55 0.14061776601441422
1674.81 0.13395776601441411
1675.07 0.1139577660144141
1675.33 0.13395776601441411
1675.59 0.10728776601441392
1675.84 0.13728776601441417
1676.1 0.11728776601441415
1676.36 0.11061776601441398
1676.62 0.12395776601441387
1676.87 0.12061776601441421
1677.13 0.10395776601441387
1677.39 0.1439577660144139
1677.64 0.10395776601441387
1677.9 0.10728776601441392
1678.16 0.09728776601441413
1678.42 0.10061776601441419
1678.67 0.130617766014414
1678.93 0.10061776601441419
1679.19 0.1139577660144141
1679.45 0.130617766014414
1679.7 0.12395776601441387
1679.96 0.12728776601441394
1680.22 0.12728776601441394
1680.48 0.13728776601441417
1680.73 0.12061776601441421
1680.99 0.130617766014414
1681.25 0.130617766014414
1681.51 0.1139577660144141
1681.76 0.11061776601441398
1682.02 0.13395776601441411
1682.28 0.1139577660144141
1682.53 0.11061776601441398
1682.79 0.12395776601441387
1683.05 0.12728776601441394
1683.31 0.09728776601441413
1683.56 0.12395776601441387
1683.82 0.11728776601441415
1684.08 0.12061776601441421
1684.33 0.09728776601441413
1684.59 0.12395776601441387
1684.85 0.11728776601441415
1685.11 0.11061776601441398
1685.36 0.12061776601441421
1685.62 0.12395776601441387
1685.88 0.1439577660144139
1686.13 0.12728776601441394
1686.39 0.13728776601441417
1686.65 0.11061776601441398
1686.91 0.12395776601441387
1687.16 0.130617766014414
1687.42 0.13395776601441411
1687.68 0.11061776601441398
1687.93 0.09728776601441413
1688.19 0.13395776601441411
1688.45 0.11061776601441398
1688.7 0.10728776601441392
1688.96 0.1139577660144141
1689.22 0.10728776601441392
1689.47 0.13728776601441417
1689.73 0.12061776601441421
1689.99 0.11061776601441398
1690.24 0.130617766014414
1690.5 0.12395776601441387
1690.76 0.12728776601441394
1691.01 0.11728776601441415
1691.27 0.14061776601441422
1691.53 0.12395776601441387
1691.79 0.13728776601441417
1692.04 0.11728776601441415
1692.3 0.13728776601441417
1692.56 0.12395776601441387
1692.81 0.12728776601441394
1693.07 0.12061776601441421
1693.32 0.12395776601441387
1693.58 0.12061776601441421
1693.84 0.12395776601441387
1694.1 0.13395776601441411
1694.35 0.11728776601441415
1694.61 0.11728776601441415
1694.87 0.13728776601441417
1695.12 0.12061776601441421
1695.38 0.1139577660144141
1695.64 0.1439577660144139
1695.89 0.12728776601441394
1696.15 0.130617766014414
1696.4 0.12728776601441394
1696.66 0.130617766014414
1696.92 0.12728776601441394
1697.17 0.0872877660144139
1697.43 0.12395776601441387
1697.69 0.150617766014414
1697.94 0.12061776601441421
1698.2 0.12061776601441421
1698.46 0.12395776601441387
1698.71 0.1139577660144141
1698.97 0.130617766014414
1699.23 0.15395776601441413
1699.48 0.10728776601441392
1699.74 0.12061776601441421
1699.99 0.11728776601441415
1700.25 0.10728776601441392
1700.51 0.10395776601441387
1700.76 0.10061776601441419
1701.02 0.12061776601441421
1701.28 0.11728776601441415
1701.53 0.12728776601441394
1701.79 0.12395776601441387
1702.04 0.12728776601441394
1702.3 0.10061776601441419
1702.56 0.130617766014414
1702.81 0.12395776601441387
1703.07 0.10728776601441392
1703.33 0.130617766014414
1703.58 0.1139577660144141
1703.84 0.130617766014414
1704.1 0.11728776601441415
1704.35 0.10061776601441419
1704.61 0.12061776601441421
1704.86 0.11728776601441415
1705.12 0.130617766014414
1705.38 0.12061776601441421
1705.63 0.13728776601441417
1705.89 0.1439577660144139
1706.14 0.12061776601441421
1706.4 0.10728776601441392
1706.66 0.11728776601441415
1706.91 0.13395776601441411
1707.17 0.12061776601441421
1707.42 0.13728776601441417
1707.68 0.1139577660144141
1707.94 0.13728776601441417
1708.19 0.1139577660144141
1708.45 0.13728776601441417
1708.7 0.11728776601441415
1708.96 0.11728776601441415
1709.22 0.1572877660144142
1709.47 0.12061776601441421
1709.73 0.12395776601441387
1709.98 0.11728776601441415
1710.24 0.130617766014414
1710.49 0.12395776601441387
1710.75 0.12728776601441394
1711.01 0.13395776601441411
1711.26 0.130617766014414
1711.52 0.130617766014414
1711.77 0.1139577660144141
1712.03 0.13728776601441417
1712.29 0.09395776601441408
1712.54 0.13728776601441417
1712.8 0.11728776601441415
1713.05 0.14061776601441422
1713.31 0.11728776601441415
1713.56 0.09728776601441413
1713.82 0.12061776601441421
1714.07 0.12395776601441387
1714.33 0.11061776601441398
1714.59 0.13395776601441411
1714.84 0.11061776601441398
1715.1 0.13728776601441417
1715.35 0.130617766014414
1715.61 0.10061776601441419
1715.86 0.12395776601441387
1716.12 0.12395776601441387
1716.37 0.12061776601441421
1716.63 0.12061776601441421
1716.89 0.13728776601441417
1717.14 0.12728776601441394
1717.4 0.14061776601441422
1717.65 0.12061776601441421
1717.91 0.13728776601441417
1718.16 0.11728776601441415
1718.42 0.11728776601441415
1718.67 0.12728776601441394
1718.93 0.12061776601441421
1719.18 0.11061776601441398
1719.44 0.09395776601441408
1719.7 0.13395776601441411
1719.95 0.10395776601441387
1720.21 0.11728776601441415
1720.46 0.13728776601441417
1720.72 0.13728776601441417
1720.97 0.12728776601441394
1721.23 0.13395776601441411
1721.48 0.12061776601441421
1721.74 0.09395776601441408
1721.99 0.12395776601441387
1722.25 0.1139577660144141
1722.5 0.11728776601441415
1722.76 0.13728776601441417
1723.01 0.1139577660144141
1723.27 0.11728776601441415
1723.52 0.11061776601441398
1723.78 0.12728776601441394
1724.04 0.10061776601441419
1724.29 0.130617766014414
1724.55 0.10061776601441419
1724.8 0.11728776601441415
1725.05 0.12061776601441421
1725.31 0.13395776601441411
1725.57 0.1139577660144141
1725.82 0.130617766014414
1726.08 0.1139577660144141
1726.33 0.14061776601441422
1726.59 0.1439577660144139
1726.84 0.12728776601441394
1727.1 0.14061776601441422
1727.35 0.1139577660144141
1727.61 0.11061776601441398
1727.86 0.11061776601441398
1728.12 0.1139577660144141
1728.37 0.11061776601441398
1728.63 0.14061776601441422
1728.88 0.150617766014414
1729.14 0.13395776601441411
1729.39 0.1139577660144141
1729.64 0.12728776601441394
1729.9 0.11728776601441415
1730.16 0.13395776601441411
1730.41 0.130617766014414
1730.67 0.12061776601441421
1730.92 0.11728776601441415
1731.17 0.11061776601441398
1731.43 0.11061776601441398
1731.68 0.12728776601441394
1731.94 0.12395776601441387
1732.19 0.130617766014414
1732.45 0.12395776601441387
1732.7 0.13395776601441411
1732.96 0.12395776601441387
1733.21 0.12061776601441421
1733.47 0.1439577660144139
1733.72 0.08395776601441385
1733.98 0.12728776601441394
1734.23 0.13395776601441411
1734.49 0.1139577660144141
1734.74 0.09728776601441413
1734.99 0.12728776601441394
1735.25 0.09728776601441413
1735.5 0.12395776601441387
1735.76 0.1139577660144141
1736.01 0.12728776601441394
1736.27 0.12061776601441421
1736.52 0.1139577660144141
1736.78 0.130617766014414
1737.03 0.11728776601441415
1737.29 0.12395776601441387
1737.54 0.150617766014414
1737.79 0.12061776601441421
1738.05 0.12395776601441387
1738.3 0.13728776601441417
1738.56 0.12395776601441387
1738.81 0.11728776601441415
1739.07 0.13395776601441411
1739.32 0.14061776601441422
1739.58 0.14728776601441396
1739.83 0.1139577660144141
1740.09 0.12061776601441421
1740.34 0.14061776601441422
1740.59 0.1439577660144139
1740.85 0.12395776601441387
1741.1 0.130617766014414
1741.36 0.10395776601441387
1741.61 0.09395776601441408
1741.86 0.13728776601441417
1742.12 0.12728776601441394
1742.37 0.09728776601441413
1742.63 0.11728776601441415
1742.88 0.130617766014414
1743.14 0.12061776601441421
1743.39 0.11728776601441415
1743.65 0.12061776601441421
1743.9 0.13728776601441417
1744.15 0.10728776601441392
1744.41 0.11728776601441415
1744.66 0.12395776601441387
1744.92 0.130617766014414
1745.17 0.09728776601441413
1745.42 0.12395776601441387
1745.68 0.130617766014414
1745.93 0.11728776601441415
1746.19 0.12061776601441421
1746.44 0.12728776601441394
1746.69 0.10061776601441419
1746.95 0.12061776601441421
1747.2 0.12728776601441394
1747.46 0.1139577660144141
1747.71 0.1139577660144141
1747.96 0.12061776601441421
1748.22 0.14061776601441422
1748.47 0.1439577660144139
1748.73 0.130617766014414
1748.98 0.10061776601441419
1749.23 0.13395776601441411
1749.49 0.14061776601441422
1749.74 0.12061776601441421
1750.0 0.11728776601441415
1750.25 0.10061776601441419
1750.5 0.130617766014414
1750.76 0.12728776601441394
1751.01 0.130617766014414
1751.27 0.13728776601441417
1751.52 0.10395776601441387
1751.77 0.11728776601441415
1752.03 0.14061776601441422
1752.28 0.10728776601441392
1752.53 0.11061776601441398
1752.79 0.11728776601441415
1753.04 0.13395776601441411
1753.3 0.12728776601441394
1753.55 0.11728776601441415
1753.8 0.12061776601441421
1754.06 0.13728776601441417
1754.31 0.11061776601441398
1754.56 0.10728776601441392
1754.82 0.10395776601441387
1755.07 0.130617766014414
1755.32 0.13728776601441417
1755.58 0.0872877660144139
1755.83 0.1139577660144141
1756.09 0.11728776601441415
1756.34 0.11728776601441415
1756.59 0.12728776601441394
1756.85 0.11728776601441415
1757.1 0.12061776601441421
1757.35 0.12728776601441394
1757.61 0.12395776601441387
1757.86 0.12395776601441387
1758.11 0.12728776601441394
1758.37 0.11728776601441415
1758.62 0.11061776601441398
1758.87 0.14728776601441396
1759.13 0.12728776601441394
1759.38 0.12061776601441421
1759.63 0.130617766014414
1759.89 0.12061776601441421
1760.14 0.09728776601441413
1760.39 0.12061776601441421
1760.65 0.13728776601441417
1760.9 0.12728776601441394
1761.15 0.12061776601441421
1761.41 0.13728776601441417
1761.66 0.13728776601441417
1761.91 0.14061776601441422
1762.17 0.13395776601441411
1762.42 0.11061776601441398
1762.67 0.13395776601441411
1762.93 0.130617766014414
1763.18 0.13395776601441411
1763.43 0.11728776601441415
1763.69 0.15395776601441413
1763.94 0.13395776601441411
1764.19 0.12728776601441394
1764.45 0.12728776601441394
1764.7 0.12061776601441421
1764.95 0.09728776601441413
1765.21 0.12728776601441394
1765.46 0.12395776601441387
1765.71 0.150617766014414
1765.96 0.14728776601441396
1766.22 0.11728776601441415
1766.47 0.11728776601441415
1766.72 0.12395776601441387
1766.98 0.130617766014414
1767.23 0.13395776601441411
1767.48 0.11061776601441398
1767.74 0.130617766014414
1767.99 0.130617766014414
1768.24 0.10395776601441387
1768.49 0.14061776601441422
1768.75 0.12395776601441387
1769.0 0.13728776601441417
1769.25 0.13728776601441417
1769.51 0.13728776601441417
1769.76 0.130617766014414
1770.01 0.12395776601441387
1770.27 0.12061776601441421
1770.52 0.1439577660144139
1770.77 0.13728776601441417
1771.03 0.130617766014414
1771.28 0.10395776601441387
1771.53 0.14728776601441396
1771.78 0.12395776601441387
1772.04 0.130617766014414
1772.29 0.11061776601441398
1772.54 0.10395776601441387
1772.79 0.14061776601441422
1773.05 0.14061776601441422
1773.3 0.12061776601441421
1773.55 0.12395776601441387
1773.8 0.12395776601441387
1774.06 0.12728776601441394
1774.31 0.14728776601441396
1774.56 0.13395776601441411
1774.82 0.12395776601441387
1775.07 0.150617766014414
1775.32 0.13728776601441417
1775.57 0.11728776601441415
1775.83 0.130617766014414
1776.08 0.11061776601441398
1776.33 0.14061776601441422
1776.58 0.12061776601441421
1776.84 0.130617766014414
1777.09 0.12728776601441394
1777.34 0.13728776601441417
1777.59 0.12728776601441394
1777.85 0.11061776601441398
1778.1 0.14061776601441422
1778.35 0.12728776601441394
1778.6 0.130617766014414
1778.86 0.12061776601441421
1779.11 0.14061776601441422
1779.36 0.09728776601441413
1779.61 0.130617766014414
1779.87 0.10395776601441387
1780.12 0.1439577660144139
1780.37 0.12728776601441394
1780.62 0.10061776601441419
1780.88 0.1439577660144139
1781.13 0.1139577660144141
1781.38 0.13728776601441417
1781.63 0.12061776601441421
1781.89 0.12395776601441387
1782.14 0.1139577660144141
1782.39 0.10395776601441387
1782.64 0.1139577660144141
1782.89 0.14061776601441422
1783.15 0.11728776601441415
1783.4 0.11728776601441415
1783.65 0.1439577660144139
1783.9 0.1139577660144141
1784.16 0.130617766014414
1784.41 0.10395776601441387
1784.66 0.12061776601441421
1784.91 0.13395776601441411
1785.16 0.11061776601441398
1785.41 0.13395776601441411
1785.67 0.10728776601441392
1785.92 0.11061776601441398
1786.17 0.10728776601441392
1786.42 0.10395776601441387
1786.68 0.15395776601441413
1786.93 0.09728776601441413
1787.18 0.1439577660144139
1787.43 0.12728776601441394
1787.68 0.12395776601441387
1787.94 0.11061776601441398
1788.19 0.11728776601441415
1788.44 0.1439577660144139
1788.69 0.14061776601441422
1788.94 0.13395776601441411
1789.2 0.1139577660144141
1789.45 0.14061776601441422
1789.7 0.130617766014414
1789.95 0.10061776601441419
1790.2 0.12061776601441421
1790.46 0.12728776601441394
1790.71 0.11061776601441398
1790.96 0.1139577660144141
1791.21 0.12395776601441387
1791.46 0.11728776601441415
1791.71 0.10728776601441392
1791.97 0.12061776601441421
1792.22 0.130617766014414
1792.47 0.12061776601441421
1792.72 0.12395776601441387
1792.97 0.13395776601441411
1793.23 0.1139577660144141
1793.48 0.12728776601441394
1793.73 0.12061776601441421
1793.98 0.12061776601441421
1794.23 0.11728776601441415
1794.48 0.09728776601441413
1794.74 0.13728776601441417
1794.99 0.12395776601441387
1795.24 0.1439577660144139
1795.49 0.14061776601441422
1795.74 0.1439577660144139
1795.99 0.11061776601441398
1796.25 0.130617766014414
1796.5 0.11061776601441398
1796.75 0.11728776601441415
1797.0 0.14061776601441422
1797.25 0.12061776601441421
1797.5 0.13395776601441411
1797.75 0.09061776601441396
1798.01 0.14728776601441396
1798.26 0.12395776601441387
1798.51 0.10728776601441392
1798.76 0.12728776601441394
1799.01 0.12728776601441394
1799.26 0.14728776601441396
1799.51 0.13728776601441417
1799.77 0.12061776601441421
1800.02 0.12728776601441394
1800.27 0.1139577660144141
1800.52 0.10728776601441392
1800.77 0.1139577660144141
1801.02 0.12395776601441387
1801.27 0.130617766014414
1801.53 0.12395776601441387
1801.78 0.12395776601441387
1802.03 0.130617766014414
1802.28 0.14061776601441422
1802.53 0.1139577660144141
1802.78 0.12061776601441421
1803.03 0.1139577660144141
1803.29 0.14061776601441422
1803.54 0.13395776601441411
1803.79 0.12395776601441387
1804.04 0.13728776601441417
1804.29 0.150617766014414
1804.54 0.10395776601441387
1804.79 0.12061776601441421
1805.04 0.13395776601441411
1805.29 0.12395776601441387
1805.55 0.12061776601441421
1805.8 0.130617766014414
1806.05 0.10728776601441392
1806.3 0.10728776601441392
1806.55 0.14061776601441422
1806.8 0.11061776601441398
1807.05 0.12395776601441387
1807.3 0.13395776601441411
1807.56 0.12061776601441421
1807.81 0.12728776601441394
1808.06 0.1139577660144141
1808.31 0.12395776601441387
1808.56 0.11061776601441398
1808.81 0.1139577660144141
1809.06 0.12061776601441421
1809.31 0.11728776601441415
1809.56 0.12395776601441387
1809.81 0.11061776601441398
1810.06 0.1139577660144141
1810.32 0.12728776601441394
1810.57 0.1439577660144139
1810.82 0.11728776601441415
1811.07 0.13728776601441417
1811.32 0.1139577660144141
1811.57 0.12728776601441394
1811.82 0.13395776601441411
1812.07 0.130617766014414
1812.32 0.1139577660144141
1812.57 0.11728776601441415
1812.82 0.11061776601441398
1813.07 0.1139577660144141
1813.32 0.12061776601441421
1813.57 0.130617766014414
1813.83 0.12728776601441394
1814.08 0.150617766014414
1814.33 0.09728776601441413
1814.58 0.12728776601441394
1814.83 0.14728776601441396
1815.08 0.1139577660144141
1815.33 0.12728776601441394
1815.58 0.12395776601441387
1815.83 0.12061776601441421
1816.08 0.1139577660144141
1816.33 0.150617766014414
1816.58 0.11061776601441398
1816.83 0.13395776601441411
1817.08 0.12395776601441387
1817.33 0.09061776601441396
1817.59 0.1439577660144139
1817.84 0.11728776601441415
1818.09 0.11728776601441415
1818.34 0.12395776601441387
1818.59 0.11728776601441415
1818.84 0.14061776601441422
1819.09 0.13395776601441411
1819.34 0.10728776601441392
1819.59 0.11728776601441415
1819.84 0.11728776601441415
1820.09 0.13395776601441411
1820.34 0.1439577660144139
1820.59 0.12728776601441394
1820.84 0.14728776601441396
1821.09 0.12061776601441421
1821.34 0.13395776601441411
1821.59 0.09395776601441408
1821.84 0.12728776601441394
1822.09 0.10395776601441387
1822.34 0.12395776601441387
1822.59 0.150617766014414
1822.84 0.11728776601441415
1823.09 0.11061776601441398
1823.34 0.12728776601441394
1823.59 0.16061776601441424
1823.84 0.1572877660144142
1824.1 0.12061776601441421
1824.35 0.11061776601441398
1824.6 0.10395776601441387
1824.85 0.13728776601441417
1825.1 0.1439577660144139
1825.35 0.12061776601441421
1825.6 0.1139577660144141
1825.85 0.12395776601441387
1826.1 0.130617766014414
1826.35 0.130617766014414
1826.6 0.10728776601441392
1826.85 0.12395776601441387
1827.1 0.11061776601441398
1827.35 0.130617766014414
1827.6 0.12728776601441394
1827.85 0.12395776601441387
1828.1 0.12061776601441421
1828.35 0.12061776601441421
1828.6 0.11728776601441415
1828.85 0.130617766014414
1829.1 0.10728776601441392
1829.35 0.130617766014414
1829.6 0.09728776601441413
1829.85 0.13395776601441411
1830.1 0.150617766014414
1830.35 0.130617766014414
1830.6 0.12061776601441421
1830.85 0.12395776601441387
1831.1 0.1439577660144139
1831.35 0.10728776601441392
1831.6 0.13395776601441411
1831.85 0.12395776601441387
1832.1 0.11728776601441415
1832.35 0.10395776601441387
1832.59 0.13395776601441411
1832.84 0.13728776601441417
1833.1 0.1139577660144141
1833.34 0.1139577660144141
1833.59 0.14061776601441422
1833.84 0.13728776601441417
1834.09 0.1139577660144141
1834.34 0.12061776601441421
1834.59 0.12395776601441387
1834.84 0.11728776601441415
1835.09 0.13395776601441411
1835.34 0.12728776601441394
1835.59 0.12728776601441394
1835.84 0.14061776601441422
1836.09 0.12395776601441387
1836.34 0.12061776601441421
1836.59 0.12061776601441421
1836.84 0.130617766014414
1837.09 0.11061776601441398
1837.34 0.12728776601441394
1837.59 0.130617766014414
1837.84 0.12728776601441394
1838.09 0.130617766014414
1838.34 0.130617766014414
1838.59 0.09395776601441408
1838.84 0.12728776601441394
1839.09 0.11728776601441415
1839.34 0.11728776601441415
1839.58 0.10395776601441387
1839.83 0.09061776601441396
1840.08 0.11728776601441415
1840.33 0.12061776601441421
1840.58 0.150617766014414
1840.83 0.12728776601441394
1841.08 0.13728776601441417
1841.33 0.10061776601441419
1841.58 0.12395776601441387
1841.83 0.130617766014414
1842.08 0.13395776601441411
1842.33 0.09728776601441413
1842.58 0.10061776601441419
1842.83 0.130617766014414
1843.07 0.130617766014414
1843.32 0.14061776601441422
1843.57 0.130617766014414
1843.82 0.130617766014414
1844.07 0.11061776601441398
1844.32 0.130617766014414
1844.57 0.11061776601441398
1844.82 0.13395776601441411
1845.07 0.11728776601441415
1845.32 0.130617766014414
1845.57 0.130617766014414
1845.82 0.09728776601441413
1846.07 0.12728776601441394
1846.31 0.12061776601441421
1846.56 0.12061776601441421
1846.81 0.12395776601441387
1847.06 0.12061776601441421
1847.31 0.10395776601441387
1847.56 0.12061776601441421
1847.81 0.11728776601441415
1848.06 0.12728776601441394
1848.31 0.11061776601441398
1848.56 0.11728776601441415
1848.8 0.13395776601441411
1849.05 0.12395776601441387
1849.3 0.11728776601441415
1849.55 0.10728776601441392
1849.8 0.130617766014414
1850.05 0.1139577660144141
1850.3 0.12728776601441394
1850.55 0.12728776601441394
1850.8 0.1139577660144141
1851.05 0.11728776601441415
1851.3 0.12061776601441421
1851.54 0.11728776601441415
1851.79 0.10728776601441392
1852.04 0.11728776601441415
1852.29 0.11061776601441398
1852.54 0.10395776601441387
1852.79 0.1139577660144141
1853.04 0.10395776601441387
1853.28 0.130617766014414
1853.53 0.12395776601441387
1853.78 0.12395776601441387
1854.03 0.12061776601441421
1854.28 0.12061776601441421
1854.53 0.130617766014414
1854.78 0.1139577660144141
1855.03 0.12728776601441394
1855.27 0.10728776601441392
1855.52 0.11728776601441415
1855.77 0.10061776601441419
1856.02 0.13395776601441411
1856.27 0.11728776601441415
1856.52 0.11728776601441415
1856.77 0.10728776601441392
1857.01 0.11061776601441398
1857.26 0.10395776601441387
1857.51 0.11728776601441415
1857.76 0.12395776601441387
1858.01 0.11728776601441415
1858.26 0.1439577660144139
1858.51 0.11061776601441398
1858.75 0.11061776601441398
1859.0 0.13728776601441417
1859.25 0.11728776601441415
1859.5 0.12061776601441421
1859.75 0.130617766014414
1860.0 0.13395776601441411
1860.24 0.14061776601441422
1860.49 0.12728776601441394
1860.74 0.11728776601441415
1860.99 0.11061776601441398
1861.24 0.12395776601441387
1861.49 0.12728776601441394
1861.73 0.10395776601441387
1861.98 0.130617766014414
1862.23 0.1439577660144139
1862.48 0.1572877660144142
1862.73 0.130617766014414
1862.98 0.130617766014414
1863.23 0.12061776601441421
1863.47 0.13728776601441417
1863.72 0.13395776601441411
1863.97 0.14061776601441422
1864.22 0.12395776601441387
1864.47 0.1139577660144141
1864.72 0.12061776601441421
1864.96 0.14728776601441396
1865.21 0.130617766014414
1865.46 0.10061776601441419
1865.71 0.11728776601441415
1865.96 0.13728776601441417
1866.2 0.12395776601441387
1866.45 0.130617766014414
1866.7 0.13395776601441411
1866.95 0.14061776601441422
1867.2 0.130617766014414
1867.44 0.1139577660144141
1867.69 0.11728776601441415
1867.94 0.11061776601441398
1868.19 0.13395776601441411
1868.44 0.12061776601441421
1868.68 0.14061776601441422
1868.93 0.130617766014414
1869.18 0.130617766014414
1869.43 0.0872877660144139
1869.68 0.12728776601441394
1869.92 0.11728776601441415
1870.17 0.13728776601441417
1870.42 0.12728776601441394
1870.67 0.12395776601441387
1870.92 0.12728776601441394
1871.16 0.10395776601441387
1871.41 0.13728776601441417
1871.66 0.11728776601441415
1871.91 0.10728776601441392
1872.15 0.13395776601441411
1872.4 0.11728776601441415
1872.65 0.150617766014414
1872.9 0.12728776601441394
1873.15 0.10728776601441392
1873.39 0.12061776601441421
1873.64 0.1139577660144141
1873.89 0.11728776601441415
1874.14 0.130617766014414
1874.38 0.12395776601441387
1874.63 0.12061776601441421
1874.88 0.11728776601441415
1875.13 0.12728776601441394
1875.38 0.10728776601441392
1875.62 0.11728776601441415
1875.87 0.13728776601441417
1876.12 0.1439577660144139
1876.37 0.12061776601441421
1876.61 0.12061776601441421
1876.86 0.11728776601441415
1877.11 0.12728776601441394
1877.36 0.10728776601441392
1877.6 0.130617766014414
1877.85 0.11728776601441415
1878.1 0.11728776601441415
1878.35 0.130617766014414
1878.59 0.13728776601441417
1878.84 0.10061776601441419
1879.09 0.130617766014414
1879.34 0.09061776601441396
1879.58 0.14061776601441422
1879.83 0.1139577660144141
1880.08 0.11728776601441415
1880.33 0.11061776601441398
1880.57 0.13395776601441411
1880.82 0.12395776601441387
1881.07 0.130617766014414
1881.32 0.12728776601441394
1881.56 0.14061776601441422
1881.81 0.1139577660144141
1882.06 0.1139577660144141
1882.3 0.12728776601441394
1882.55 0.13395776601441411
1882.8 0.14061776601441422
1883.05 0.12728776601441394
1883.29 0.12728776601441394
1883.54 0.12728776601441394
1883.79 0.12395776601441387
1884.04 0.10728776601441392
1884.28 0.14061776601441422
1884.53 0.130617766014414
1884.78 0.130617766014414
1885.02 0.11061776601441398
1885.27 0.150617766014414
1885.52 0.11061776601441398
1885.77 0.13728776601441417
1886.01 0.130617766014414
1886.26 0.14728776601441396
1886.51 0.12061776601441421
1886.75 0.13728776601441417
1887.0 0.12395776601441387
1887.25 0.10061776601441419
1887.5 0.130617766014414
1887.74 0.130617766014414
1887.99 0.12728776601441394
1888.24 0.13395776601441411
1888.48 0.09728776601441413
1888.73 0.130617766014414
1888.98 0.10395776601441387
1889.23 0.12728776601441394
1889.47 0.12728776601441394
1889.72 0.13728776601441417
1889.97 0.14061776601441422
1890.21 0.14061776601441422
1890.46 0.10728776601441392
1890.71 0.11728776601441415
1890.95 0.1139577660144141
1891.2 0.1139577660144141
1891.45 0.13395776601441411
1891.69 0.14728776601441396
1891.94 0.12728776601441394
1892.19 0.150617766014414
1892.44 0.11728776601441415
1892.68 0.14061776601441422
1892.93 0.13395776601441411
1893.17 0.130617766014414
1893.42 0.1139577660144141
1893.67 0.14061776601441422
1893.92 0.1439577660144139
1894.16 0.13395776601441411
1894.41 0.11728776601441415
1894.66 0.12061776601441421
1894.9 0.12061776601441421
1895.15 0.130617766014414
1895.4 0.12395776601441387
1895.64 0.130617766014414
1895.89 0.12728776601441394
1896.14 0.12395776601441387
1896.38 0.1572877660144142
1896.63 0.11061776601441398
1896.87 0.11728776601441415
1897.12 0.11061776601441398
1897.37 0.12395776601441387
1897.62 0.10728776601441392
1897.86 0.12395776601441387
1898.11 0.10728776601441392
1898.35 0.130617766014414
1898.6 0.11061776601441398
1898.85 0.14061776601441422
1899.09 0.12395776601441387
1899.34 0.13395776601441411
1899.59 0.13728776601441417
1899.83 0.12395776601441387
1900.08 0.11728776601441415
1900.33 0.14061776601441422
1900.57 0.09395776601441408
1900.82 0.130617766014414
1901.07 0.130617766014414
1901.31 0.13395776601441411
1901.56 0.14061776601441422
1901.8 0.12395776601441387
1902.05 0.13395776601441411
1902.3 0.11061776601441398
1902.54 0.14728776601441396
1902.79 0.1439577660144139
1903.04 0.10728776601441392
1903.28 0.13395776601441411
1903.53 0.13728776601441417
1903.78 0.12395776601441387
1904.02 0.12728776601441394
1904.27 0.12061776601441421
1904.51 0.09395776601441408
1904.76 0.1439577660144139
1905.01 0.1139577660144141
1905.25 0.13395776601441411
1905.5 0.130617766014414
1905.74 0.1139577660144141
1905.99 0.1439577660144139
1906.24 0.11728776601441415
1906.48 0.130617766014414
1906.73 0.12061776601441421
1906.98 0.12395776601441387
1907.22 0.13395776601441411
1907.47 0.13728776601441417
1907.71 0.11728776601441415
1907.96 0.11728776601441415
1908.21 0.12728776601441394
1908.45 0.12395776601441387
1908.7 0.12395776601441387
1908.94 0.10728776601441392
1909.19 0.14061776601441422
1909.44 0.1139577660144141
1909.68 0.12395776601441387
1909.93 0.14061776601441422
1910.17 0.12061776601441421
1910.42 0.11728776601441415
1910.66 0.130617766014414
1910.91 0.10728776601441392
1911.16 0.150617766014414
1911.4 0.1139577660144141
1911.65 0.12728776601441394
1911.9 0.12728776601441394
1912.14 0.130617766014414
1912.39 0.130617766014414
1912.63 0.11728776601441415
1912.88 0.130617766014414
1913.12 0.13728776601441417
1913.37 0.10728776601441392
1913.62 0.1139577660144141
1913.86 0.12728776601441394
1914.11 0.12395776601441387
1914.35 0.12728776601441394
1914.6 0.13395776601441411
1914.84 0.11728776601441415
1915.09 0.13395776601441411
1915.33 0.1139577660144141
1915.58 0.1439577660144139
1915.83 0.12728776601441394
1916.07 0.09728776601441413
1916.32 0.13728776601441417
1916.56 0.1439577660144139
1916.81 0.11728776601441415
1917.05 0.13728776601441417
1917.3 0.130617766014414
1917.55 0.13395776601441411
1917.79 0.13395776601441411
1918.04 0.12728776601441394
1918.28 0.130617766014414
1918.53 0.12395776601441387
1918.77 0.14061776601441422
1919.02 0.130617766014414
1919.26 0.09728776601441413
1919.51 0.14728776601441396
1919.76 0.12061776601441421
1920.0 0.12061776601441421
1920.25 0.12061776601441421
1920.49 0.11728776601441415
1920.74 0.11061776601441398
1920.98 0.11061776601441398
1921.23 0.10061776601441419
1921.47 0.10728776601441392
1921.72 0.09728776601441413
1921.96 0.130617766014414
1922.21 0.12061776601441421
1922.45 0.12395776601441387
1922.7 0.11061776601441398
1922.94 0.130617766014414
1923.19 0.130617766014414
1923.43 0.130617766014414
1923.68 0.12728776601441394
1923.93 0.12395776601441387
1924.17 0.13728776601441417
1924.42 0.13395776601441411
1924.66 0.09728776601441413
1924.91 0.12395776601441387
1925.15 0.13395776601441411
1925.4 0.12061776601441421
1925.64 0.11728776601441415
1925.89 0.10395776601441387
1926.13 0.130617766014414
1926.38 0.11061776601441398
1926.62 0.12061776601441421
1926.87 0.10728776601441392
1927.11 0.09728776601441413
1927.36 0.13395776601441411
1927.6 0.10061776601441419
1927.85 0.12395776601441387
1928.09 0.12061776601441421
1928.34 0.12395776601441387
1928.58 0.10395776601441387
1928.83 0.12395776601441387
1929.07 0.12395776601441387
1929.32 0.10728776601441392
1929.56 0.1439577660144139
1929.81 0.1139577660144141
1930.05 0.11728776601441415
1930.3 0.1139577660144141
1930.54 0.14061776601441422
1930.79 0.12395776601441387
1931.03 0.12728776601441394
1931.28 0.12395776601441387
1931.52 0.12395776601441387
1931.77 0.11728776601441415
1932.01 0.09395776601441408
1932.26 0.13395776601441411
1932.5 0.12061776601441421
1932.75 0.12395776601441387
1932.99 0.12061776601441421
1933.24 0.10395776601441387
1933.48 0.130617766014414
1933.73 0.13728776601441417
1933.97 0.12728776601441394
1934.22 0.12395776601441387
1934.46 0.10395776601441387
1934.71 0.11728776601441415
1934.95 0.11061776601441398
1935.19 0.13395776601441411
1935.44 0.13395776601441411
1935.68 0.130617766014414
1935.93 0.12395776601441387
1936.17 0.12728776601441394
1936.42 0.150617766014414
1936.66 0.14061776601441422
1936.91 0.12061776601441421
1937.15 0.11728776601441415
1937.4 0.13728776601441417
1937.64 0.12728776601441394
1937.88 0.12061776601441421
1938.13 0.11728776601441415
1938.37 0.12395776601441387
1938.62 0.130617766014414
1938.86 0.10395776601441387
1939.11 0.130617766014414
1939.35 0.10728776601441392
1939.6 0.12728776601441394
1939.84 0.12395776601441387
1940.09 0.12395776601441387
1940.33 0.130617766014414
1940.57 0.130617766014414
1940.82 0.1139577660144141
1941.06 0.11728776601441415
1941.31 0.13728776601441417
1941.55 0.14061776601441422
1941.8 0.12728776601441394
1942.04 0.12061776601441421
1942.28 0.11728776601441415
1942.53 0.1439577660144139
1942.77 0.12395776601441387
1943.02 0.1139577660144141
1943.26 0.09728776601441413
1943.51 0.14061776601441422
1943.75 0.12728776601441394
1944.0 0.12395776601441387
1944.24 0.12395776601441387
1944.48 0.12395776601441387
1944.73 0.12728776601441394
1944.97 0.12728776601441394
1945.22 0.12395776601441387
1945.46 0.10395776601441387
1945.7 0.13728776601441417
1945.95 0.14061776601441422
1946.19 0.1139577660144141
1946.44 0.12395776601441387
1946.68 0.12061776601441421
1946.92 0.130617766014414
1947.17 0.13395776601441411
1947.41 0.12728776601441394
1947.66 0.13395776601441411
1947.9 0.130617766014414
1948.14 0.10728776601441392
1948.39 0.12728776601441394
1948.63 0.11061776601441398
1948.88 0.13395776601441411
1949.12 0.13395776601441411
1949.37 0.130617766014414
1949.61 0.12061776601441421
1949.85 0.13395776601441411
1950.1 0.11728776601441415
1950.34 0.13728776601441417
1950.59 0.12728776601441394
1950.83 0.11728776601441415
1951.07 0.11061776601441398
1951.32 0.11728776601441415
1951.56 0.12061776601441421
1951.8 0.13728776601441417
1952.05 0.10061776601441419
1952.29 0.11061776601441398
1952.54 0.12061776601441421
1952.78 0.14061776601441422
1953.02 0.1439577660144139
1953.27 0.14061776601441422
1953.51 0.130617766014414
1953.75 0.14061776601441422
1954.0 0.11728776601441415
1954.24 0.13728776601441417
1954.49 0.11728776601441415
1954.73 0.13728776601441417
1954.97 0.09728776601441413
1955.22 0.12728776601441394
1955.46 0.15395776601441413
