# Created: 2019-11-28 14:56:19.375699
# rshift intensity
55.3072 0.06000000000000005
55.6331 0.04999999999999982
55.9568 0.06333000000000011
56.2826 0.05332999999999988
56.6085 0.029999999999999805
56.9343 0.05667
57.2601 0.040000000000000036
57.5859 0.040000000000000036
57.9117 0.04999999999999982
58.2374 0.040000000000000036
58.5632 0.04666999999999977
58.8889 0.04999999999999982
59.2147 0.040000000000000036
59.5382 0.04333000000000009
59.864 0.06000000000000005
60.1897 0.04999999999999982
60.5154 0.05332999999999988
60.841 0.05332999999999988
61.1667 0.05332999999999988
61.4924 0.05667
61.818 0.04999999999999982
62.1437 0.04666999999999977
62.4671 0.04999999999999982
62.7927 0.06666999999999978
63.1183 0.06333000000000011
63.4439 0.08000000000000007
63.7695 0.05667
64.0951 0.0733299999999999
64.4206 0.06666999999999978
64.744 0.06999999999999984
65.0696 0.06666999999999978
65.3951 0.07667000000000002
65.7206 0.08000000000000007
66.0461 0.06666999999999978
66.3716 0.08999999999999986
66.6971 0.09667000000000003
67.0204 0.10000000000000009
67.3459 0.1200000000000001
67.6713 0.14000000000000012
67.9967 0.1299999999999999
68.3222 0.13667000000000007
68.6476 0.1566700000000001
68.9708 0.13667000000000007
69.2962 0.14000000000000012
69.6216 0.13667000000000007
69.9469 0.13667000000000007
70.2723 0.11332999999999993
70.5976 0.11667000000000005
70.9208 0.08333000000000013
71.2461 0.09667000000000003
71.5715 0.09667000000000003
71.8968 0.0733299999999999
72.222 0.08000000000000007
72.5452 0.06333000000000011
72.8704 0.06999999999999984
73.1957 0.06666999999999978
73.5209 0.04666999999999977
73.8462 0.06666999999999978
74.1692 0.05332999999999988
74.4944 0.06333000000000011
74.8196 0.04333000000000009
75.1448 0.040000000000000036
75.4678 0.026670000000000194
75.793 0.04999999999999982
76.1182 0.05332999999999988
76.4433 0.04999999999999982
76.7684 0.05667
77.0914 0.04666999999999977
77.4165 0.06000000000000005
77.7416 0.023330000000000073
78.0667 0.03666999999999998
78.3896 0.023330000000000073
78.7147 0.03666999999999998
79.0397 0.04333000000000009
79.3648 0.04333000000000009
79.6876 0.04999999999999982
80.0127 0.06000000000000005
80.3377 0.05332999999999988
80.6627 0.03666999999999998
80.9855 0.026670000000000194
81.3105 0.023330000000000073
81.6354 0.03666999999999998
81.9604 0.016669999999999963
82.2832 0.03666999999999998
82.6081 0.06000000000000005
82.933 0.04666999999999977
83.2558 0.04999999999999982
83.5807 0.04999999999999982
83.9055 0.05332999999999988
84.2304 0.04333000000000009
84.5531 0.026670000000000194
84.878 0.03666999999999998
85.2028 0.04666999999999977
85.5255 0.03332999999999986
85.8503 0.026670000000000194
86.1751 0.04999999999999982
86.4978 0.05332999999999988
86.8225 0.03666999999999998
87.1473 0.029999999999999805
87.4721 0.026670000000000194
87.7947 0.04999999999999982
88.1194 0.040000000000000036
88.4441 0.04999999999999982
88.7667 0.04999999999999982
89.0914 0.05332999999999988
89.4161 0.03332999999999986
89.7386 0.04666999999999977
90.0633 0.03332999999999986
90.3879 0.05332999999999988
90.7104 0.05332999999999988
91.0351 0.04333000000000009
91.3597 0.04333000000000009
91.6822 0.0
92.0068 0.04999999999999982
92.3314 0.03332999999999986
92.6538 0.06000000000000005
92.9784 0.040000000000000036
93.3029 0.029999999999999805
93.6253 0.023330000000000073
93.9499 0.06333000000000011
94.2722 0.03666999999999998
94.5967 0.040000000000000036
94.9212 0.04999999999999982
95.2436 0.04999999999999982
95.5681 0.04999999999999982
95.8925 0.06333000000000011
96.2149 0.05667
96.5393 0.05332999999999988
96.8616 0.05667
97.186 0.03666999999999998
97.5104 0.023330000000000073
97.8327 0.08000000000000007
98.1571 0.040000000000000036
98.4814 0.06333000000000011
98.8037 0.06666999999999978
99.128 0.06999999999999984
99.4502 0.04999999999999982
99.7746 0.05332999999999988
100.099 0.06666999999999978
100.421 0.0733299999999999
100.745 0.06333000000000011
101.067 0.016669999999999963
101.392 0.040000000000000036
101.714 0.04999999999999982
102.038 0.04999999999999982
102.362 0.05667
102.684 0.04333000000000009
103.009 0.05667
103.331 0.03666999999999998
103.655 0.06333000000000011
103.977 0.06333000000000011
104.301 0.03666999999999998
104.625 0.04333000000000009
104.947 0.06333000000000011
105.271 0.04666999999999977
105.593 0.040000000000000036
105.918 0.020000000000000018
106.24 0.040000000000000036
106.564 0.05332999999999988
106.886 0.04999999999999982
107.21 0.05667
107.534 0.04999999999999982
107.856 0.05667
108.18 0.04333000000000009
108.502 0.040000000000000036
108.826 0.04999999999999982
109.147 0.05667
109.471 0.06000000000000005
109.793 0.04666999999999977
110.117 0.03666999999999998
110.439 0.026670000000000194
110.763 0.029999999999999805
111.085 0.06666999999999978
111.409 0.05667
111.731 0.03666999999999998
112.054 0.040000000000000036
112.376 0.04333000000000009
112.7 0.05332999999999988
113.022 0.03666999999999998
113.346 0.05667
113.667 0.04666999999999977
113.991 0.06666999999999978
114.313 0.05667
114.637 0.04333000000000009
114.958 0.04999999999999982
115.282 0.05332999999999988
115.604 0.040000000000000036
115.928 0.026670000000000194
116.249 0.04666999999999977
116.573 0.029999999999999805
116.895 0.04666999999999977
117.216 0.04333000000000009
117.54 0.029999999999999805
117.862 0.040000000000000036
118.185 0.05332999999999988
118.507 0.023330000000000073
118.83 0.040000000000000036
119.152 0.05332999999999988
119.476 0.04666999999999977
119.797 0.04999999999999982
120.121 0.04999999999999982
120.442 0.04999999999999982
120.764 0.03666999999999998
121.087 0.06333000000000011
121.409 0.040000000000000036
121.732 0.04999999999999982
122.054 0.040000000000000036
122.377 0.04666999999999977
122.699 0.06000000000000005
123.02 0.05332999999999988
123.344 0.05667
123.665 0.04333000000000009
123.988 0.04333000000000009
124.31 0.05667
124.631 0.040000000000000036
124.955 0.040000000000000036
125.276 0.06999999999999984
125.599 0.03666999999999998
125.921 0.04999999999999982
126.242 0.04666999999999977
126.565 0.040000000000000036
126.887 0.03332999999999986
127.21 0.05667
127.531 0.04666999999999977
127.852 0.040000000000000036
128.176 0.040000000000000036
128.497 0.04999999999999982
128.82 0.05332999999999988
129.141 0.06000000000000005
129.463 0.016669999999999963
129.786 0.04666999999999977
130.107 0.03666999999999998
130.428 0.04333000000000009
130.751 0.026670000000000194
131.073 0.013329999999999842
131.394 0.029999999999999805
131.717 0.04666999999999977
132.038 0.029999999999999805
132.361 0.05667
132.682 0.05332999999999988
133.003 0.04666999999999977
133.326 0.040000000000000036
133.647 0.03666999999999998
133.969 0.03666999999999998
134.292 0.05667
134.613 0.029999999999999805
134.934 0.04999999999999982
135.257 0.04999999999999982
135.578 0.06000000000000005
135.899 0.040000000000000036
136.22 0.026670000000000194
136.543 0.05332999999999988
136.864 0.03332999999999986
137.184 0.04666999999999977
137.507 0.04999999999999982
137.828 0.03332999999999986
138.149 0.040000000000000036
138.472 0.05667
138.793 0.029999999999999805
139.114 0.04666999999999977
139.437 0.04999999999999982
139.758 0.040000000000000036
140.078 0.026670000000000194
140.399 0.05332999999999988
140.722 0.029999999999999805
141.043 0.03332999999999986
141.364 0.03332999999999986
141.687 0.029999999999999805
142.007 0.04999999999999982
142.328 0.040000000000000036
142.649 0.040000000000000036
142.972 0.029999999999999805
143.292 0.04666999999999977
143.613 0.040000000000000036
143.934 0.04999999999999982
144.256 0.040000000000000036
144.577 0.04333000000000009
144.898 0.06000000000000005
145.218 0.04666999999999977
145.541 0.040000000000000036
145.862 0.04333000000000009
146.182 0.040000000000000036
146.503 0.04666999999999977
146.826 0.03666999999999998
147.146 0.06333000000000011
147.467 0.04333000000000009
147.787 0.06333000000000011
148.11 0.05332999999999988
148.43 0.04666999999999977
148.751 0.04333000000000009
149.071 0.03666999999999998
149.392 0.04666999999999977
149.715 0.026670000000000194
150.035 0.06333000000000011
150.355 0.04666999999999977
150.676 0.04666999999999977
150.996 0.04999999999999982
151.319 0.04333000000000009
151.639 0.04333000000000009
151.96 0.04666999999999977
152.28 0.04666999999999977
152.6 0.05332999999999988
152.923 0.029999999999999805
153.243 0.05332999999999988
153.564 0.040000000000000036
153.884 0.04666999999999977
154.204 0.08333000000000013
154.527 0.0733299999999999
154.847 0.040000000000000036
155.167 0.04666999999999977
155.488 0.05667
155.808 0.04999999999999982
156.128 0.04333000000000009
156.45 0.08000000000000007
156.771 0.04666999999999977
157.091 0.05332999999999988
157.411 0.04666999999999977
157.731 0.04999999999999982
158.052 0.04999999999999982
158.372 0.05667
158.694 0.026670000000000194
159.014 0.05667
159.334 0.04666999999999977
159.654 0.05667
159.975 0.06999999999999984
160.295 0.04999999999999982
160.615 0.03666999999999998
160.937 0.04999999999999982
161.257 0.04333000000000009
161.577 0.04999999999999982
161.897 0.03332999999999986
162.217 0.04666999999999977
162.537 0.04333000000000009
162.857 0.04333000000000009
163.177 0.04666999999999977
163.499 0.05667
163.819 0.04333000000000009
164.139 0.03666999999999998
164.459 0.05332999999999988
164.779 0.03666999999999998
165.099 0.05332999999999988
165.419 0.020000000000000018
165.739 0.03332999999999986
166.059 0.04333000000000009
166.379 0.06000000000000005
166.699 0.06000000000000005
167.021 0.03332999999999986
167.341 0.04333000000000009
167.661 0.03666999999999998
167.98 0.04333000000000009
168.3 0.03666999999999998
168.62 0.05332999999999988
168.94 0.023330000000000073
169.26 0.04666999999999977
169.58 0.04666999999999977
169.899 0.03666999999999998
170.219 0.04333000000000009
170.539 0.06000000000000005
170.859 0.04999999999999982
171.178 0.04333000000000009
171.498 0.04666999999999977
171.818 0.040000000000000036
172.137 0.040000000000000036
172.459 0.06000000000000005
172.779 0.04333000000000009
173.099 0.04666999999999977
173.418 0.040000000000000036
173.738 0.04999999999999982
174.058 0.029999999999999805
174.377 0.04333000000000009
174.697 0.05332999999999988
175.016 0.040000000000000036
175.336 0.03666999999999998
175.656 0.03332999999999986
175.975 0.06666999999999978
176.295 0.03332999999999986
176.614 0.040000000000000036
176.934 0.020000000000000018
177.253 0.04333000000000009
177.573 0.04666999999999977
177.892 0.04999999999999982
178.212 0.06666999999999978
178.531 0.040000000000000036
178.851 0.04999999999999982
179.17 0.04333000000000009
179.49 0.06666999999999978
179.809 0.026670000000000194
180.129 0.03332999999999986
180.448 0.040000000000000036
180.767 0.05667
181.087 0.06666999999999978
181.406 0.040000000000000036
181.726 0.07667000000000002
182.045 0.05332999999999988
182.362 0.04333000000000009
182.682 0.03666999999999998
183.001 0.03332999999999986
183.32 0.03666999999999998
183.64 0.029999999999999805
183.959 0.05332999999999988
184.278 0.04999999999999982
184.597 0.05332999999999988
184.917 0.06000000000000005
185.236 0.040000000000000036
185.555 0.04333000000000009
185.874 0.05667
186.194 0.04333000000000009
186.513 0.04666999999999977
186.832 0.04333000000000009
187.151 0.03666999999999998
187.47 0.06666999999999978
187.787 0.04333000000000009
188.107 0.04666999999999977
188.426 0.040000000000000036
188.745 0.06333000000000011
189.064 0.05667
189.383 0.040000000000000036
189.702 0.05332999999999988
190.021 0.04999999999999982
190.34 0.03666999999999998
190.66 0.04999999999999982
190.976 0.04999999999999982
191.296 0.020000000000000018
191.615 0.04999999999999982
191.934 0.03666999999999998
192.253 0.05332999999999988
192.572 0.040000000000000036
192.891 0.04666999999999977
193.21 0.04666999999999977
193.529 0.03666999999999998
193.845 0.040000000000000036
194.164 0.04999999999999982
194.483 0.040000000000000036
194.802 0.03332999999999986
195.121 0.04666999999999977
195.44 0.040000000000000036
195.759 0.03332999999999986
196.076 0.06333000000000011
196.395 0.040000000000000036
196.713 0.05332999999999988
197.032 0.05332999999999988
197.351 0.040000000000000036
197.67 0.04333000000000009
197.987 0.03666999999999998
198.305 0.04999999999999982
198.624 0.03666999999999998
198.943 0.023330000000000073
199.262 0.05667
199.581 0.05667
199.897 0.04999999999999982
200.216 0.05667
200.535 0.040000000000000036
200.853 0.04333000000000009
201.172 0.03666999999999998
201.491 0.04999999999999982
201.807 0.05332999999999988
202.126 0.03666999999999998
202.445 0.023330000000000073
202.763 0.029999999999999805
203.082 0.03332999999999986
203.399 0.04999999999999982
203.717 0.06000000000000005
204.036 0.05332999999999988
204.354 0.03666999999999998
204.673 0.04999999999999982
204.989 0.04666999999999977
205.308 0.06666999999999978
205.627 0.05667
205.945 0.04666999999999977
206.262 0.04666999999999977
206.58 0.023330000000000073
206.899 0.06333000000000011
207.217 0.04666999999999977
207.533 0.06666999999999978
207.852 0.05332999999999988
208.17 0.06000000000000005
208.489 0.04666999999999977
208.805 0.04999999999999982
209.124 0.040000000000000036
209.442 0.05332999999999988
209.761 0.026670000000000194
210.077 0.040000000000000036
210.395 0.04999999999999982
210.714 0.05332999999999988
211.032 0.06999999999999984
211.348 0.05667
211.667 0.026670000000000194
211.985 0.04666999999999977
212.303 0.05332999999999988
212.619 0.06333000000000011
212.938 0.05667
213.256 0.05667
213.572 0.04666999999999977
213.89 0.05332999999999988
214.209 0.04333000000000009
214.527 0.04666999999999977
214.843 0.04999999999999982
215.161 0.040000000000000036
215.48 0.040000000000000036
215.796 0.06000000000000005
216.114 0.06000000000000005
216.432 0.06000000000000005
216.748 0.05667
217.066 0.026670000000000194
217.384 0.04999999999999982
217.703 0.06000000000000005
218.019 0.03332999999999986
218.337 0.06999999999999984
218.655 0.04333000000000009
218.971 0.05332999999999988
219.289 0.06999999999999984
219.607 0.040000000000000036
219.923 0.06666999999999978
220.241 0.06999999999999984
220.559 0.05332999999999988
220.875 0.04999999999999982
221.193 0.05332999999999988
221.511 0.06000000000000005
221.827 0.05667
222.145 0.03666999999999998
222.461 0.05667
222.779 0.04666999999999977
223.097 0.05667
223.413 0.05667
223.731 0.06000000000000005
224.048 0.04999999999999982
224.364 0.05332999999999988
224.682 0.0733299999999999
225.0 0.07667000000000002
225.316 0.06333000000000011
225.634 0.05667
225.949 0.06666999999999978
226.267 0.05332999999999988
226.585 0.05667
226.901 0.06000000000000005
227.219 0.06000000000000005
227.534 0.06333000000000011
227.852 0.06666999999999978
228.17 0.04333000000000009
228.486 0.06333000000000011
228.803 0.04999999999999982
229.119 0.05667
229.437 0.07667000000000002
229.755 0.06000000000000005
230.07 0.05332999999999988
230.388 0.08000000000000007
230.703 0.06333000000000011
231.021 0.06666999999999978
231.337 0.05667
231.654 0.06000000000000005
231.972 0.06000000000000005
232.288 0.08000000000000007
232.605 0.04333000000000009
232.921 0.05667
233.238 0.05667
233.554 0.04333000000000009
233.871 0.06999999999999984
234.189 0.04999999999999982
234.504 0.04999999999999982
234.822 0.06999999999999984
235.137 0.05667
235.455 0.06999999999999984
235.77 0.05332999999999988
236.088 0.06333000000000011
236.403 0.05332999999999988
236.721 0.04666999999999977
237.036 0.040000000000000036
237.354 0.06333000000000011
237.669 0.06999999999999984
237.986 0.04999999999999982
238.302 0.04666999999999977
238.619 0.040000000000000036
238.935 0.05332999999999988
239.252 0.040000000000000036
239.567 0.040000000000000036
239.885 0.06999999999999984
240.202 0.020000000000000018
240.517 0.04666999999999977
240.833 0.06000000000000005
241.15 0.06000000000000005
241.465 0.04999999999999982
241.782 0.06000000000000005
242.098 0.04666999999999977
242.415 0.04999999999999982
242.73 0.03666999999999998
243.047 0.06666999999999978
243.363 0.06666999999999978
243.68 0.04333000000000009
243.995 0.05332999999999988
244.312 0.040000000000000036
244.627 0.05332999999999988
244.945 0.04333000000000009
245.26 0.05332999999999988
245.577 0.0733299999999999
245.892 0.03666999999999998
246.209 0.04333000000000009
246.524 0.03666999999999998
246.839 0.05332999999999988
247.156 0.04999999999999982
247.471 0.040000000000000036
247.788 0.06000000000000005
248.103 0.05332999999999988
248.421 0.04999999999999982
248.735 0.04999999999999982
249.053 0.05332999999999988
249.368 0.029999999999999805
249.682 0.06999999999999984
249.999 0.06000000000000005
250.314 0.07667000000000002
250.631 0.04333000000000009
250.946 0.05332999999999988
251.261 0.05667
251.578 0.04999999999999982
251.893 0.06000000000000005
252.21 0.05667
252.525 0.06333000000000011
252.842 0.04999999999999982
253.157 0.05667
253.472 0.04666999999999977
253.788 0.06000000000000005
254.103 0.05332999999999988
254.418 0.04666999999999977
254.735 0.04666999999999977
255.05 0.06666999999999978
255.367 0.04666999999999977
255.681 0.04666999999999977
255.996 0.040000000000000036
256.313 0.03332999999999986
256.628 0.05667
256.942 0.04999999999999982
257.259 0.03666999999999998
257.574 0.04999999999999982
257.89 0.04333000000000009
258.205 0.04666999999999977
258.52 0.020000000000000018
258.837 0.06333000000000011
259.151 0.06666999999999978
259.466 0.06000000000000005
259.782 0.05332999999999988
260.097 0.04999999999999982
260.412 0.06333000000000011
260.728 0.04999999999999982
261.043 0.04666999999999977
261.357 0.05332999999999988
261.674 0.06333000000000011
261.989 0.04999999999999982
262.303 0.04666999999999977
262.62 0.06000000000000005
262.934 0.04666999999999977
263.249 0.03666999999999998
263.565 0.05667
263.88 0.06000000000000005
264.194 0.0733299999999999
264.511 0.05667
264.825 0.03666999999999998
265.14 0.04333000000000009
265.454 0.03332999999999986
265.771 0.06666999999999978
266.085 0.0733299999999999
266.399 0.05332999999999988
266.716 0.06000000000000005
267.03 0.06666999999999978
267.344 0.06000000000000005
267.659 0.05332999999999988
267.975 0.06000000000000005
268.29 0.06999999999999984
268.604 0.05667
268.92 0.06333000000000011
269.235 0.03666999999999998
269.549 0.05667
269.863 0.06333000000000011
270.179 0.04999999999999982
270.494 0.06666999999999978
270.808 0.06000000000000005
271.122 0.04999999999999982
271.438 0.05332999999999988
271.753 0.05332999999999988
272.067 0.06000000000000005
272.381 0.05667
272.697 0.04999999999999982
273.011 0.06333000000000011
273.326 0.05667
273.64 0.06000000000000005
273.956 0.04999999999999982
274.27 0.04333000000000009
274.584 0.0733299999999999
274.898 0.04666999999999977
275.212 0.05332999999999988
275.528 0.05332999999999988
275.843 0.04666999999999977
276.157 0.05667
276.471 0.03332999999999986
276.787 0.06999999999999984
277.101 0.05667
277.415 0.06999999999999984
277.729 0.07667000000000002
278.043 0.04999999999999982
278.359 0.06176100292405273
278.673 0.0614262735121871
278.987 0.06156770757705621
279.301 0.06193797223482589
279.615 0.06150979239759957
279.929 0.061601528282692275
280.245 0.061849050758783
280.558 0.06156603478273226
280.872 0.0617262532840388
281.186 0.06164879002724355
281.5 0.061732637761934495
281.814 0.0616522997521014
282.13 0.06165185275206442
282.444 0.061667447047552226
282.758 0.06154863386855336
283.071 0.06174628678138827
283.385 0.06161591143384193
283.699 0.06182079094600601
284.015 0.061676025306043325
284.329 0.06178753004548776
284.642 0.06999999999999984
284.956 0.04999999999999982
285.27 0.05332999999999988
285.584 0.04666999999999977
285.897 0.05332999999999988
286.213 0.06000000000000005
286.527 0.040000000000000036
286.841 0.06333000000000011
287.154 0.04666999999999977
287.468 0.04333000000000009
287.782 0.06999999999999984
288.095 0.05332999999999988
288.409 0.04999999999999982
288.722 0.05332999999999988
289.038 0.06000000000000005
289.352 0.08000000000000007
289.665 0.06666999999999978
289.979 0.03332999999999986
290.293 0.05667
290.606 0.06999999999999984
290.92 0.06333000000000011
291.233 0.04666999999999977
291.547 0.06333000000000011
291.86 0.04666999999999977
292.176 0.04666999999999977
292.489 0.06999999999999984
292.803 0.04666999999999977
293.116 0.08333000000000013
293.43 0.06666999999999978
293.743 0.06333000000000011
294.057 0.06666999999999978
294.37 0.04333000000000009
294.683 0.04333000000000009
294.997 0.05332999999999988
295.31 0.06000000000000005
295.624 0.06666999999999978
295.937 0.06333000000000011
296.25 0.04999999999999982
296.564 0.06000000000000005
296.877 0.04999999999999982
297.19 0.05667
297.504 0.07667000000000002
297.819 0.08000000000000007
298.133 0.06000000000000005
298.446 0.06000000000000005
298.759 0.06000000000000005
299.072 0.06000000000000005
299.386 0.06333000000000011
299.699 0.06333000000000011
300.012 0.07667000000000002
300.325 0.06333000000000011
300.639 0.05667
300.952 0.06999999999999984
301.265 0.08000000000000007
301.578 0.04666999999999977
301.891 0.05667
302.205 0.06000000000000005
302.518 0.06333000000000011
302.831 0.0866699999999998
303.144 0.07667000000000002
303.457 0.06333000000000011
303.77 0.0733299999999999
304.083 0.04999999999999982
304.396 0.07667000000000002
304.709 0.06333000000000011
305.023 0.05667
305.336 0.04999999999999982
305.649 0.06333000000000011
305.962 0.06000000000000005
306.273 0.07667000000000002
306.586 0.06333000000000011
306.899 0.08333000000000013
307.212 0.08000000000000007
307.525 0.05667
307.838 0.0866699999999998
308.151 0.06666999999999978
308.464 0.08000000000000007
308.777 0.0733299999999999
309.089 0.0733299999999999
309.402 0.05667
309.715 0.07667000000000002
310.028 0.05667
310.341 0.0733299999999999
310.654 0.06333000000000011
310.967 0.06666999999999978
311.28 0.06000000000000005
311.593 0.05667
311.903 0.0866699999999998
312.216 0.0733299999999999
312.529 0.10000000000000009
312.842 0.06333000000000011
313.155 0.0866699999999998
313.467 0.08333000000000013
313.78 0.06999999999999984
314.093 0.07667000000000002
314.406 0.08000000000000007
314.718 0.07667000000000002
315.029 0.08333000000000013
315.342 0.08333000000000013
315.654 0.09332999999999991
315.967 0.05332999999999988
316.28 0.0733299999999999
316.593 0.06999999999999984
316.905 0.06999999999999984
317.218 0.05667
317.531 0.08333000000000013
317.841 0.09332999999999991
318.154 0.08000000000000007
318.466 0.08000000000000007
318.779 0.06999999999999984
319.092 0.10000000000000009
319.404 0.10000000000000009
319.717 0.08999999999999986
320.027 0.09332999999999991
320.34 0.0733299999999999
320.652 0.10999999999999988
320.965 0.06333000000000011
321.277 0.08333000000000013
321.59 0.0866699999999998
321.9 0.08333000000000013
322.213 0.0866699999999998
322.525 0.07667000000000002
322.838 0.08000000000000007
323.15 0.08333000000000013
323.463 0.06999999999999984
323.773 0.06666999999999978
324.085 0.08999999999999986
324.398 0.06666999999999978
324.71 0.07667000000000002
325.023 0.10999999999999988
325.333 0.0733299999999999
325.645 0.0866699999999998
325.958 0.08999999999999986
326.27 0.0866699999999998
326.582 0.06999999999999984
326.893 0.10666999999999982
327.205 0.08000000000000007
327.517 0.06333000000000011
327.83 0.08000000000000007
328.142 0.08000000000000007
328.452 0.08333000000000013
328.764 0.08333000000000013
329.077 0.07667000000000002
329.389 0.08999999999999986
329.701 0.0733299999999999
330.011 0.0866699999999998
330.323 0.08333000000000013
330.636 0.12333000000000016
330.948 0.08333000000000013
331.258 0.08999999999999986
331.57 0.08000000000000007
331.882 0.0866699999999998
332.194 0.0733299999999999
332.504 0.09332999999999991
332.817 0.1200000000000001
333.129 0.08000000000000007
333.441 0.09667000000000003
333.751 0.10000000000000009
334.063 0.08999999999999986
334.375 0.0866699999999998
334.685 0.08999999999999986
334.997 0.10333000000000014
335.309 0.06333000000000011
335.621 0.11332999999999993
335.931 0.0866699999999998
336.243 0.06000000000000005
336.555 0.11332999999999993
336.867 0.09667000000000003
337.177 0.08999999999999986
337.489 0.11332999999999993
337.801 0.0866699999999998
338.111 0.11332999999999993
338.423 0.10999999999999988
338.735 0.10666999999999982
339.045 0.09667000000000003
339.356 0.11667000000000005
339.668 0.09332999999999991
339.978 0.10000000000000009
340.29 0.10000000000000009
340.602 0.11332999999999993
340.914 0.08333000000000013
341.224 0.10999999999999988
341.535 0.10000000000000009
341.847 0.08999999999999986
342.157 0.09332999999999991
342.469 0.10000000000000009
342.781 0.09667000000000003
343.09 0.09332999999999991
343.402 0.09332999999999991
343.714 0.10999999999999988
344.023 0.10333000000000014
344.335 0.10999999999999988
344.645 0.08000000000000007
344.957 0.10999999999999988
345.268 0.12666999999999984
345.578 0.08999999999999986
345.89 0.07667000000000002
346.201 0.10666999999999982
346.511 0.10333000000000014
346.823 0.12666999999999984
347.134 0.08999999999999986
347.444 0.10666999999999982
347.755 0.11332999999999993
348.065 0.08333000000000013
348.376 0.10000000000000009
348.688 0.09332999999999991
348.998 0.08999999999999986
349.309 0.09667000000000003
349.619 0.09667000000000003
349.93 0.09667000000000003
350.242 0.09332999999999991
350.551 0.09667000000000003
350.863 0.10000000000000009
351.172 0.12333000000000016
351.484 0.10666999999999982
351.795 0.10999999999999988
352.105 0.10333000000000014
352.416 0.10666999999999982
352.725 0.10666999999999982
353.037 0.0866699999999998
353.346 0.09332999999999991
353.658 0.09667000000000003
353.969 0.1299999999999999
354.278 0.09332999999999991
354.59 0.10333000000000014
354.899 0.10333000000000014
355.211 0.10333000000000014
355.52 0.08000000000000007
355.831 0.10000000000000009
356.142 0.10999999999999988
356.452 0.08999999999999986
356.763 0.11332999999999993
357.072 0.10333000000000014
357.384 0.09667000000000003
357.693 0.10000000000000009
358.004 0.10000000000000009
358.313 0.08999999999999986
358.625 0.08000000000000007
358.934 0.1200000000000001
359.245 0.08333000000000013
359.554 0.0866699999999998
359.865 0.10000000000000009
360.174 0.10666999999999982
360.486 0.11667000000000005
360.795 0.13332999999999995
361.106 0.10999999999999988
361.415 0.1299999999999999
361.726 0.1299999999999999
362.035 0.10333000000000014
362.346 0.08999999999999986
362.655 0.1200000000000001
362.967 0.11332999999999993
363.276 0.09667000000000003
363.587 0.08333000000000013
363.896 0.10666999999999982
364.207 0.0866699999999998
364.516 0.07667000000000002
364.827 0.10000000000000009
365.136 0.0866699999999998
365.447 0.08999999999999986
365.756 0.10999999999999988
366.067 0.10000000000000009
366.376 0.10999999999999988
366.687 0.09667000000000003
366.996 0.10666999999999982
367.307 0.09667000000000003
367.615 0.1200000000000001
367.924 0.0733299999999999
368.235 0.10666999999999982
368.544 0.10999999999999988
368.855 0.0866699999999998
369.164 0.08000000000000007
369.475 0.10333000000000014
369.784 0.08999999999999986
370.094 0.10333000000000014
370.403 0.10999999999999988
370.712 0.08333000000000013
371.023 0.10666999999999982
371.332 0.09332999999999991
371.642 0.09667000000000003
371.951 0.11332999999999993
372.262 0.10666999999999982
372.571 0.08000000000000007
372.879 0.09667000000000003
373.19 0.0866699999999998
373.499 0.09332999999999991
373.81 0.10333000000000014
374.118 0.1299999999999999
374.427 0.09332999999999991
374.738 0.10333000000000014
375.046 0.11667000000000005
375.357 0.10333000000000014
375.666 0.10000000000000009
375.974 0.11332999999999993
376.285 0.10000000000000009
376.593 0.08999999999999986
376.902 0.08000000000000007
377.213 0.10000000000000009
377.521 0.08333000000000013
377.832 0.09667000000000003
378.14 0.08000000000000007
378.449 0.10000000000000009
378.759 0.08333000000000013
379.068 0.10666999999999982
379.376 0.11667000000000005
379.687 0.10666999999999982
379.995 0.09332999999999991
380.304 0.10666999999999982
380.614 0.10333000000000014
380.923 0.10666999999999982
381.231 0.10666999999999982
381.542 0.10000000000000009
381.85 0.10999999999999988
382.159 0.0866699999999998
382.469 0.12666999999999984
382.777 0.08000000000000007
383.086 0.08000000000000007
383.396 0.10666999999999982
383.705 0.09667000000000003
384.013 0.12333000000000016
384.323 0.09332999999999991
384.632 0.11667000000000005
384.94 0.09667000000000003
385.25 0.10666999999999982
385.559 0.0866699999999998
385.867 0.1200000000000001
386.175 0.10000000000000009
386.485 0.10000000000000009
386.794 0.1200000000000001
387.102 0.1200000000000001
387.412 0.15332999999999997
387.72 0.1200000000000001
388.029 0.11667000000000005
388.337 0.1499999999999999
388.647 0.10000000000000009
388.955 0.11667000000000005
389.263 0.10333000000000014
389.571 0.13332999999999995
389.882 0.12666999999999984
390.19 0.1299999999999999
390.498 0.11667000000000005
390.808 0.15332999999999997
391.116 0.1299999999999999
391.424 0.11667000000000005
391.732 0.11667000000000005
392.042 0.12333000000000016
392.351 0.11667000000000005
392.659 0.11667000000000005
392.967 0.14333000000000018
393.275 0.14666999999999986
393.585 0.1299999999999999
393.893 0.11667000000000005
394.201 0.12333000000000016
394.509 0.13332999999999995
394.819 0.15332999999999997
395.127 0.13332999999999995
395.435 0.12666999999999984
395.743 0.12666999999999984
396.051 0.10999999999999988
396.361 0.1499999999999999
396.668 0.11667000000000005
396.976 0.14333000000000018
397.284 0.1299999999999999
397.592 0.1566700000000001
397.902 0.1299999999999999
398.21 0.14333000000000018
398.518 0.1200000000000001
398.826 0.11332999999999993
399.133 0.14666999999999986
399.443 0.12333000000000016
399.751 0.13332999999999995
400.059 0.1566700000000001
400.367 0.13667000000000007
400.674 0.14666999999999986
400.982 0.1566700000000001
401.292 0.15332999999999997
401.6 0.14000000000000012
401.908 0.13667000000000007
402.215 0.15332999999999997
402.523 0.1299999999999999
402.831 0.1566700000000001
403.14 0.15332999999999997
403.448 0.14000000000000012
403.756 0.14666999999999986
404.063 0.18000000000000016
404.371 0.16999999999999993
404.679 0.1566700000000001
404.986 0.18000000000000016
405.296 0.16666999999999987
405.604 0.1566700000000001
405.911 0.20000000000000018
406.219 0.17332999999999998
406.526 0.17332999999999998
406.834 0.1866699999999999
407.142 0.1633300000000002
407.449 0.1566700000000001
407.759 0.19333
408.066 0.17332999999999998
408.374 0.18332999999999977
408.681 0.1766700000000001
408.989 0.16000000000000014
409.296 0.21333000000000002
409.604 0.2033299999999998
409.911 0.16000000000000014
410.219 0.18999999999999995
410.526 0.19667000000000012
410.834 0.2066699999999999
411.143 0.18000000000000016
411.45 0.18999999999999995
411.758 0.1866699999999999
412.065 0.21333000000000002
412.373 0.2233299999999998
412.68 0.16999999999999993
412.987 0.18999999999999995
413.295 0.26332999999999984
413.602 0.21333000000000002
413.909 0.26332999999999984
414.217 0.22666999999999993
414.524 0.21333000000000002
414.831 0.23333000000000004
415.139 0.2033299999999998
415.446 0.23667000000000016
415.753 0.23333000000000004
416.06 0.23333000000000004
416.37 0.19667000000000012
416.677 0.2599999999999998
416.984 0.2200000000000002
417.291 0.24666999999999994
417.599 0.19667000000000012
417.906 0.2566700000000002
418.213 0.24332999999999982
418.52 0.2200000000000002
418.827 0.22666999999999993
419.135 0.2200000000000002
419.442 0.21333000000000002
419.749 0.2033299999999998
420.056 0.23333000000000004
420.363 0.21667000000000014
420.67 0.2200000000000002
420.977 0.19667000000000012
421.284 0.21667000000000014
421.591 0.20999999999999996
421.899 0.21667000000000014
422.206 0.2233299999999998
422.513 0.23333000000000004
422.82 0.23333000000000004
423.127 0.16666999999999987
423.434 0.1866699999999999
423.741 0.19667000000000012
424.048 0.2066699999999999
424.355 0.19667000000000012
424.662 0.20999999999999996
424.967 0.19667000000000012
425.274 0.18332999999999977
425.58 0.20999999999999996
425.887 0.16999999999999993
426.194 0.19667000000000012
426.501 0.21667000000000014
426.808 0.20999999999999996
427.115 0.18999999999999995
427.422 0.1766700000000001
427.729 0.19667000000000012
428.036 0.16000000000000014
428.342 0.20999999999999996
428.649 0.1566700000000001
428.956 0.16666999999999987
429.263 0.1499999999999999
429.57 0.15332999999999997
429.875 0.1499999999999999
430.181 0.13332999999999995
430.488 0.19333
430.795 0.1633300000000002
431.102 0.1633300000000002
431.408 0.17332999999999998
431.715 0.13667000000000007
432.022 0.15332999999999997
432.329 0.19333
432.635 0.1766700000000001
432.942 0.15332999999999997
433.247 0.1499999999999999
433.553 0.16000000000000014
433.86 0.14333000000000018
434.167 0.1566700000000001
434.473 0.1566700000000001
434.78 0.1566700000000001
435.087 0.14000000000000012
435.393 0.12666999999999984
435.698 0.14333000000000018
436.004 0.15332999999999997
436.311 0.1633300000000002
436.617 0.16000000000000014
436.924 0.11667000000000005
437.231 0.13667000000000007
437.537 0.15332999999999997
437.842 0.14333000000000018
438.148 0.1200000000000001
438.455 0.1299999999999999
438.761 0.13332999999999995
439.068 0.13667000000000007
439.374 0.16000000000000014
439.681 0.1633300000000002
439.985 0.12666999999999984
440.291 0.12666999999999984
440.598 0.12333000000000016
440.904 0.12666999999999984
441.211 0.12333000000000016
441.515 0.1299999999999999
441.822 0.12666999999999984
442.128 0.10999999999999988
442.434 0.14000000000000012
442.741 0.12666999999999984
443.047 0.10666999999999982
443.351 0.10999999999999988
443.658 0.08999999999999986
443.964 0.10666999999999982
444.27 0.12333000000000016
444.575 0.12666999999999984
444.881 0.10333000000000014
445.187 0.1200000000000001
445.493 0.13332999999999995
445.8 0.10999999999999988
446.104 0.13667000000000007
446.41 0.10000000000000009
446.716 0.14333000000000018
447.023 0.13332999999999995
447.327 0.09667000000000003
447.633 0.14333000000000018
447.939 0.10666999999999982
448.245 0.10333000000000014
448.552 0.1200000000000001
448.856 0.09332999999999991
449.162 0.1200000000000001
449.468 0.12666999999999984
449.774 0.12333000000000016
450.078 0.11667000000000005
450.384 0.11332999999999993
450.69 0.10333000000000014
450.994 0.11667000000000005
451.3 0.12666999999999984
451.607 0.12333000000000016
451.913 0.09332999999999991
452.217 0.11667000000000005
452.523 0.10000000000000009
452.829 0.10999999999999988
453.135 0.10333000000000014
453.439 0.10666999999999982
453.745 0.09332999999999991
454.051 0.11667000000000005
454.355 0.08999999999999986
454.661 0.09667000000000003
454.967 0.1200000000000001
455.27 0.08999999999999986
455.576 0.10333000000000014
455.882 0.12666999999999984
456.188 0.08333000000000013
456.492 0.10666999999999982
456.798 0.10000000000000009
457.104 0.12333000000000016
457.408 0.12333000000000016
457.714 0.10333000000000014
458.019 0.10666999999999982
458.323 0.10666999999999982
458.629 0.10333000000000014
458.935 0.11332999999999993
459.239 0.11332999999999993
459.544 0.08333000000000013
459.85 0.10666999999999982
460.154 0.09667000000000003
460.46 0.09667000000000003
460.766 0.10000000000000009
461.069 0.10000000000000009
461.375 0.11332999999999993
461.681 0.10000000000000009
461.984 0.12333000000000016
462.29 0.11667000000000005
462.594 0.13667000000000007
462.9 0.09332999999999991
463.205 0.11332999999999993
463.509 0.11332999999999993
463.814 0.09667000000000003
464.12 0.08333000000000013
464.424 0.12333000000000016
464.729 0.09332999999999991
465.033 0.09332999999999991
465.339 0.0866699999999998
465.644 0.10999999999999988
465.948 0.11332999999999993
466.253 0.1299999999999999
466.557 0.10666999999999982
466.862 0.14000000000000012
467.168 0.10000000000000009
467.471 0.1299999999999999
467.777 0.10999999999999988
468.08 0.14000000000000012
468.386 0.10000000000000009
468.691 0.10333000000000014
468.995 0.13667000000000007
469.3 0.1200000000000001
469.604 0.13667000000000007
469.909 0.14333000000000018
470.213 0.14666999999999986
470.518 0.12333000000000016
470.824 0.16666999999999987
471.127 0.22999999999999998
471.432 0.3033299999999999
471.736 0.3733299999999997
472.041 0.40666999999999964
472.344 0.33000000000000007
472.65 0.4099999999999997
472.953 0.33000000000000007
473.258 0.38667000000000007
473.562 0.40332999999999997
473.867 0.3900000000000001
474.172 0.3833300000000004
474.476 0.3599999999999999
474.781 0.3500000000000001
475.084 0.38667000000000007
475.39 0.3433299999999999
475.693 0.3433299999999999
475.998 0.2799999999999998
476.301 0.24332999999999982
476.606 0.16666999999999987
476.91 0.14666999999999986
477.215 0.13667000000000007
477.518 0.14000000000000012
477.823 0.14666999999999986
478.126 0.08333000000000013
478.432 0.09667000000000003
478.735 0.10999999999999988
479.04 0.10999999999999988
479.343 0.11667000000000005
479.648 0.12666999999999984
479.951 0.11332999999999993
480.256 0.10666999999999982
480.559 0.11667000000000005
480.864 0.0866699999999998
481.167 0.09332999999999991
481.47 0.08999999999999986
481.776 0.11667000000000005
482.079 0.10000000000000009
482.384 0.10333000000000014
482.687 0.10999999999999988
482.992 0.09332999999999991
483.295 0.08000000000000007
483.6 0.10999999999999988
483.903 0.10000000000000009
484.208 0.09332999999999991
484.51 0.10333000000000014
484.813 0.09667000000000003
485.118 0.08999999999999986
485.421 0.12333000000000016
485.726 0.07667000000000002
486.029 0.10666999999999982
486.334 0.08999999999999986
486.637 0.10333000000000014
486.94 0.10666999999999982
487.245 0.10333000000000014
487.547 0.0866699999999998
487.852 0.11667000000000005
488.155 0.10999999999999988
488.458 0.09667000000000003
488.763 0.08333000000000013
489.066 0.10333000000000014
489.37 0.09332999999999991
489.673 0.10333000000000014
489.976 0.06999999999999984
490.281 0.10000000000000009
490.583 0.09332999999999991
490.888 0.09332999999999991
491.191 0.08333000000000013
491.494 0.08000000000000007
491.798 0.0733299999999999
492.101 0.09667000000000003
492.404 0.06666999999999978
492.708 0.08000000000000007
493.011 0.08999999999999986
493.316 0.0733299999999999
493.618 0.07667000000000002
493.921 0.06999999999999984
494.226 0.07667000000000002
494.528 0.09332999999999991
494.831 0.10000000000000009
495.135 0.06333000000000011
495.438 0.0866699999999998
495.741 0.08333000000000013
496.045 0.08333000000000013
496.348 0.0733299999999999
496.65 0.0733299999999999
496.955 0.0733299999999999
497.257 0.08000000000000007
497.56 0.08333000000000013
497.864 0.05667
498.167 0.06000000000000005
498.469 0.06666999999999978
498.774 0.06666999999999978
499.076 0.0866699999999998
499.379 0.06333000000000011
499.683 0.0866699999999998
499.986 0.06999999999999984
500.288 0.08000000000000007
500.59 0.0866699999999998
500.895 0.09332999999999991
501.197 0.07667000000000002
501.5 0.0733299999999999
501.804 0.06999999999999984
502.106 0.08000000000000007
502.409 0.06999999999999984
502.711 0.07667000000000002
503.015 0.08333000000000013
503.318 0.08000000000000007
503.62 0.06000000000000005
503.922 0.04666999999999977
504.227 0.08000000000000007
504.529 0.10666999999999982
504.831 0.09332999999999991
505.135 0.10000000000000009
505.438 0.09332999999999991
505.74 0.0866699999999998
506.042 0.09667000000000003
506.346 0.0866699999999998
506.648 0.10666999999999982
506.951 0.08000000000000007
507.253 0.0733299999999999
507.555 0.07667000000000002
507.859 0.06666999999999978
508.161 0.08000000000000007
508.463 0.10333000000000014
508.766 0.12333000000000016
509.07 0.06666999999999978
509.372 0.06999999999999984
509.674 0.09332999999999991
509.976 0.0733299999999999
510.278 0.08333000000000013
510.582 0.10000000000000009
510.884 0.07667000000000002
511.186 0.0733299999999999
511.488 0.08000000000000007
511.79 0.07667000000000002
512.094 0.0733299999999999
512.396 0.08000000000000007
512.698 0.07667000000000002
513.0 0.0733299999999999
513.302 0.10000000000000009
513.606 0.0866699999999998
513.908 0.07667000000000002
514.21 0.0733299999999999
514.512 0.0866699999999998
514.814 0.0866699999999998
515.116 0.08000000000000007
515.42 0.08333000000000013
515.722 0.09667000000000003
516.024 0.06999999999999984
516.326 0.07667000000000002
516.628 0.08999999999999986
516.93 0.08000000000000007
517.233 0.06333000000000011
517.535 0.05332999999999988
517.837 0.10666999999999982
518.139 0.08333000000000013
518.441 0.0866699999999998
518.742 0.09667000000000003
519.044 0.08999999999999986
519.346 0.08333000000000013
519.65 0.10000000000000009
519.952 0.06000000000000005
520.253 0.08999999999999986
520.555 0.08000000000000007
520.857 0.08333000000000013
521.159 0.07667000000000002
521.46 0.11332999999999993
521.762 0.08999999999999986
522.066 0.09667000000000003
522.367 0.07667000000000002
522.669 0.10666999999999982
522.971 0.06333000000000011
523.272 0.09332999999999991
523.574 0.07667000000000002
523.876 0.08333000000000013
524.177 0.08999999999999986
524.479 0.0866699999999998
524.78 0.06666999999999978
525.082 0.08333000000000013
525.384 0.08333000000000013
525.687 0.0733299999999999
525.989 0.06999999999999984
526.29 0.0733299999999999
526.592 0.0866699999999998
526.893 0.09332999999999991
527.195 0.0866699999999998
527.496 0.07667000000000002
527.798 0.0733299999999999
528.099 0.10333000000000014
528.401 0.08333000000000013
528.702 0.10000000000000009
529.004 0.11332999999999993
529.305 0.06999999999999984
529.607 0.06999999999999984
529.908 0.08000000000000007
530.21 0.0866699999999998
530.511 0.11332999999999993
530.812 0.08999999999999986
531.114 0.06000000000000005
531.415 0.10000000000000009
531.717 0.10333000000000014
532.018 0.10666999999999982
532.319 0.09667000000000003
532.621 0.09667000000000003
532.922 0.10333000000000014
533.223 0.08000000000000007
533.525 0.08333000000000013
533.826 0.09667000000000003
534.127 0.11332999999999993
534.428 0.09332999999999991
534.73 0.08333000000000013
535.031 0.10333000000000014
535.332 0.13332999999999995
535.633 0.09667000000000003
535.935 0.08000000000000007
536.236 0.11332999999999993
536.537 0.13667000000000007
536.838 0.10999999999999988
537.14 0.10666999999999982
537.441 0.10333000000000014
537.742 0.12333000000000016
538.043 0.1499999999999999
538.344 0.11332999999999993
538.645 0.10999999999999988
538.946 0.1200000000000001
539.248 0.10666999999999982
539.549 0.12333000000000016
539.85 0.12333000000000016
540.151 0.14000000000000012
540.452 0.08999999999999986
540.753 0.0866699999999998
541.054 0.11667000000000005
541.353 0.10999999999999988
541.654 0.06666999999999978
541.955 0.09332999999999991
542.256 0.10666999999999982
542.557 0.13332999999999995
542.858 0.10999999999999988
543.159 0.1200000000000001
543.46 0.1299999999999999
543.761 0.10000000000000009
544.062 0.12666999999999984
544.363 0.09667000000000003
544.664 0.10333000000000014
544.963 0.10666999999999982
545.264 0.08333000000000013
545.565 0.10999999999999988
545.866 0.12333000000000016
546.167 0.12333000000000016
546.467 0.10999999999999988
546.768 0.09667000000000003
547.069 0.10666999999999982
547.368 0.10000000000000009
547.669 0.11667000000000005
547.97 0.0866699999999998
548.271 0.09332999999999991
548.571 0.08000000000000007
548.872 0.10999999999999988
549.173 0.10333000000000014
549.474 0.09667000000000003
549.773 0.10333000000000014
550.073 0.10000000000000009
550.374 0.08000000000000007
550.675 0.10000000000000009
550.976 0.09332999999999991
551.276 0.06666999999999978
551.575 0.07667000000000002
551.876 0.0733299999999999
552.176 0.09332999999999991
552.477 0.08999999999999986
552.778 0.08000000000000007
553.078 0.10000000000000009
553.377 0.06000000000000005
553.678 0.0866699999999998
553.978 0.0733299999999999
554.279 0.08000000000000007
554.579 0.09332999999999991
554.878 0.10333000000000014
555.179 0.0733299999999999
555.479 0.06333000000000011
555.78 0.06999999999999984
556.08 0.0866699999999998
556.379 0.0866699999999998
556.68 0.0866699999999998
556.98 0.08000000000000007
557.281 0.06666999999999978
557.581 0.10333000000000014
557.88 0.06666999999999978
558.18 0.0733299999999999
558.481 0.10000000000000009
558.781 0.08000000000000007
559.079 0.09667000000000003
559.38 0.05332999999999988
559.68 0.0733299999999999
559.981 0.07667000000000002
560.279 0.06666999999999978
560.58 0.08333000000000013
560.88 0.08333000000000013
561.18 0.08000000000000007
561.479 0.06999999999999984
561.779 0.06333000000000011
562.08 0.08000000000000007
562.38 0.04666999999999977
562.678 0.06666999999999978
562.979 0.10000000000000009
563.279 0.07667000000000002
563.579 0.08333000000000013
563.878 0.06999999999999984
564.178 0.06000000000000005
564.478 0.04333000000000009
564.778 0.06999999999999984
565.077 0.06999999999999984
565.377 0.09332999999999991
565.677 0.07667000000000002
565.975 0.09332999999999991
566.276 0.06999999999999984
566.576 0.08333000000000013
566.874 0.08000000000000007
567.174 0.04666999999999977
567.474 0.07667000000000002
567.775 0.08333000000000013
568.073 0.06333000000000011
568.373 0.05332999999999988
568.673 0.0733299999999999
568.971 0.09667000000000003
569.271 0.06999999999999984
569.571 0.10333000000000014
569.869 0.08000000000000007
570.17 0.0733299999999999
570.47 0.08333000000000013
570.768 0.06999999999999984
571.068 0.08000000000000007
571.368 0.0733299999999999
571.666 0.06999999999999984
571.966 0.0733299999999999
572.264 0.08333000000000013
572.564 0.0866699999999998
572.864 0.07667000000000002
573.162 0.09332999999999991
573.462 0.06000000000000005
573.762 0.06999999999999984
574.06 0.06000000000000005
574.36 0.08333000000000013
574.66 0.06000000000000005
574.958 0.08999999999999986
575.258 0.08000000000000007
575.556 0.06000000000000005
575.855 0.0866699999999998
576.155 0.08333000000000013
576.453 0.08333000000000013
576.753 0.06666999999999978
577.051 0.08333000000000013
577.351 0.06666999999999978
577.651 0.06333000000000011
577.948 0.08999999999999986
578.248 0.06666999999999978
578.546 0.10000000000000009
578.846 0.0733299999999999
579.146 0.10999999999999988
579.444 0.08999999999999986
579.743 0.08000000000000007
580.041 0.07667000000000002
580.341 0.08000000000000007
580.639 0.07667000000000002
580.938 0.07667000000000002
581.238 0.10333000000000014
581.536 0.08000000000000007
581.836 0.05667
582.133 0.0733299999999999
582.433 0.0733299999999999
582.731 0.08000000000000007
583.03 0.0866699999999998
583.328 0.08999999999999986
583.628 0.08000000000000007
583.927 0.07667000000000002
584.225 0.0733299999999999
584.524 0.09667000000000003
584.822 0.06666999999999978
585.122 0.10333000000000014
585.419 0.08333000000000013
585.719 0.07667000000000002
586.016 0.0866699999999998
586.316 0.08333000000000013
586.613 0.09332999999999991
586.913 0.05332999999999988
587.211 0.0733299999999999
587.51 0.05667
587.808 0.06333000000000011
588.107 0.10666999999999982
588.405 0.0866699999999998
588.704 0.06666999999999978
589.002 0.10666999999999982
589.301 0.0733299999999999
589.598 0.06000000000000005
589.898 0.08333000000000013
590.195 0.08333000000000013
590.495 0.06999999999999984
590.792 0.0866699999999998
591.092 0.05332999999999988
591.389 0.08999999999999986
591.688 0.08999999999999986
591.986 0.08333000000000013
592.285 0.05332999999999988
592.582 0.0866699999999998
592.88 0.10666999999999982
593.179 0.07667000000000002
593.476 0.06999999999999984
593.776 0.07667000000000002
594.073 0.10000000000000009
594.372 0.10000000000000009
594.67 0.08333000000000013
594.969 0.08999999999999986
595.266 0.08999999999999986
595.563 0.06000000000000005
595.863 0.10000000000000009
596.16 0.06999999999999984
596.459 0.09667000000000003
596.756 0.09332999999999991
597.056 0.09667000000000003
597.353 0.11667000000000005
597.65 0.0733299999999999
597.949 0.09332999999999991
598.246 0.09667000000000003
598.545 0.10666999999999982
598.843 0.07667000000000002
599.14 0.06666999999999978
599.439 0.0733299999999999
599.736 0.09667000000000003
600.035 0.1299999999999999
600.332 0.09332999999999991
600.629 0.08000000000000007
600.928 0.08333000000000013
601.225 0.10000000000000009
601.522 0.08999999999999986
601.822 0.08999999999999986
602.119 0.09667000000000003
602.418 0.09667000000000003
602.715 0.07667000000000002
603.012 0.10333000000000014
603.311 0.09667000000000003
603.608 0.08999999999999986
603.905 0.0866699999999998
604.204 0.10999999999999988
604.5 0.08999999999999986
604.797 0.09332999999999991
605.096 0.0866699999999998
605.393 0.10000000000000009
605.69 0.06999999999999984
605.989 0.08000000000000007
606.286 0.09667000000000003
606.583 0.09667000000000003
606.882 0.0866699999999998
607.179 0.10666999999999982
607.476 0.10666999999999982
607.774 0.08999999999999986
608.071 0.09332999999999991
608.368 0.10000000000000009
608.667 0.08333000000000013
608.964 0.10000000000000009
609.261 0.06999999999999984
609.559 0.05332999999999988
609.856 0.09332999999999991
610.153 0.08333000000000013
610.45 0.08333000000000013
610.748 0.08000000000000007
611.045 0.07667000000000002
611.342 0.07667000000000002
611.641 0.09332999999999991
611.937 0.07667000000000002
612.234 0.08000000000000007
612.531 0.07667000000000002
612.829 0.09332999999999991
613.126 0.0866699999999998
613.423 0.05667
613.719 0.08000000000000007
614.018 0.10000000000000009
614.315 0.08999999999999986
614.611 0.0866699999999998
614.908 0.07667000000000002
615.207 0.09332999999999991
615.503 0.0733299999999999
615.8 0.08999999999999986
616.096 0.06999999999999984
616.395 0.06333000000000011
616.691 0.08333000000000013
616.988 0.0866699999999998
617.285 0.10666999999999982
617.583 0.08333000000000013
617.88 0.06000000000000005
618.176 0.0733299999999999
618.473 0.06333000000000011
618.769 0.07667000000000002
619.068 0.0733299999999999
619.364 0.08000000000000007
619.661 0.08999999999999986
619.957 0.0733299999999999
620.253 0.06999999999999984
620.552 0.08333000000000013
620.848 0.08000000000000007
621.145 0.0866699999999998
621.441 0.08000000000000007
621.737 0.0733299999999999
622.036 0.06999999999999984
622.332 0.0866699999999998
622.629 0.08333000000000013
622.925 0.06333000000000011
623.221 0.06333000000000011
623.518 0.06333000000000011
623.816 0.09332999999999991
624.112 0.08000000000000007
624.409 0.06000000000000005
624.705 0.0866699999999998
625.001 0.08333000000000013
625.297 0.06666999999999978
625.596 0.06333000000000011
625.892 0.09332999999999991
626.188 0.08000000000000007
626.484 0.0733299999999999
626.781 0.05332999999999988
627.077 0.08333000000000013
627.373 0.07667000000000002
627.671 0.06999999999999984
627.968 0.06999999999999984
628.264 0.10333000000000014
628.56 0.07667000000000002
628.856 0.10000000000000009
629.152 0.06999999999999984
629.448 0.08999999999999986
629.744 0.0866699999999998
630.043 0.06000000000000005
630.339 0.08000000000000007
630.635 0.06000000000000005
630.931 0.08000000000000007
631.227 0.08999999999999986
631.523 0.07667000000000002
631.819 0.06333000000000011
632.115 0.10000000000000009
632.411 0.08000000000000007
632.707 0.0733299999999999
633.003 0.08999999999999986
633.301 0.06666999999999978
633.597 0.09667000000000003
633.893 0.08999999999999986
634.189 0.0866699999999998
634.485 0.06666999999999978
634.781 0.08999999999999986
635.077 0.06333000000000011
635.373 0.08000000000000007
635.669 0.07667000000000002
635.965 0.08333000000000013
636.261 0.10333000000000014
636.557 0.0866699999999998
636.853 0.08000000000000007
637.149 0.08999999999999986
637.445 0.06999999999999984
637.74 0.04999999999999982
638.036 0.10000000000000009
638.332 0.08333000000000013
638.628 0.08333000000000013
638.924 0.08999999999999986
639.22 0.10333000000000014
639.515 0.06333000000000011
639.813 0.07667000000000002
640.109 0.10000000000000009
640.405 0.07667000000000002
640.701 0.10333000000000014
640.996 0.09332999999999991
641.292 0.09332999999999991
641.588 0.0866699999999998
641.884 0.0866699999999998
642.179 0.09332999999999991
642.475 0.07667000000000002
642.771 0.10333000000000014
643.066 0.10333000000000014
643.36 0.09667000000000003
643.656 0.08333000000000013
643.951 0.06666999999999978
644.247 0.0733299999999999
644.543 0.09332999999999991
644.838 0.10000000000000009
645.134 0.10666999999999982
645.43 0.10333000000000014
645.725 0.11332999999999993
646.021 0.08999999999999986
646.316 0.08999999999999986
646.612 0.10333000000000014
646.908 0.09667000000000003
647.203 0.11332999999999993
647.499 0.09667000000000003
647.794 0.10999999999999988
648.09 0.08999999999999986
648.385 0.10333000000000014
648.681 0.12333000000000016
648.976 0.12333000000000016
649.272 0.11332999999999993
649.565 0.0866699999999998
649.861 0.10999999999999988
650.156 0.10999999999999988
650.452 0.11667000000000005
650.747 0.1299999999999999
651.043 0.11332999999999993
651.338 0.11667000000000005
651.633 0.08999999999999986
651.929 0.10333000000000014
652.224 0.0866699999999998
652.52 0.10333000000000014
652.813 0.10666999999999982
653.108 0.1200000000000001
653.404 0.0866699999999998
653.699 0.09667000000000003
653.994 0.10666999999999982
654.29 0.09332999999999991
654.585 0.11332999999999993
654.88 0.10666999999999982
655.174 0.10666999999999982
655.469 0.11332999999999993
655.764 0.09667000000000003
656.059 0.08999999999999986
656.355 0.08333000000000013
656.65 0.09667000000000003
656.945 0.08333000000000013
657.238 0.09667000000000003
657.534 0.08999999999999986
657.829 0.09667000000000003
658.124 0.09667000000000003
658.419 0.08333000000000013
658.714 0.08333000000000013
659.01 0.07667000000000002
659.303 0.06000000000000005
659.598 0.08000000000000007
659.893 0.10000000000000009
660.188 0.06999999999999984
660.483 0.08999999999999986
660.776 0.0733299999999999
661.072 0.0733299999999999
661.367 0.09332999999999991
661.662 0.08333000000000013
661.957 0.09332999999999991
662.252 0.08333000000000013
662.545 0.06666999999999978
662.84 0.09667000000000003
663.135 0.0866699999999998
663.43 0.09667000000000003
663.723 0.10000000000000009
664.018 0.08999999999999986
664.313 0.05667
664.608 0.07667000000000002
664.903 0.08999999999999986
665.196 0.0866699999999998
665.491 0.09667000000000003
665.786 0.08000000000000007
666.081 0.08999999999999986
666.374 0.07667000000000002
666.669 0.07667000000000002
666.964 0.0866699999999998
667.259 0.07667000000000002
667.552 0.06333000000000011
667.846 0.0733299999999999
668.141 0.0866699999999998
668.436 0.07667000000000002
668.729 0.08000000000000007
669.024 0.06666999999999978
669.319 0.06999999999999984
669.614 0.04999999999999982
669.906 0.08000000000000007
670.201 0.06999999999999984
670.496 0.08000000000000007
670.791 0.08000000000000007
671.084 0.06999999999999984
671.378 0.0866699999999998
671.673 0.08000000000000007
671.966 0.10000000000000009
672.261 0.06000000000000005
672.555 0.06999999999999984
672.85 0.08000000000000007
673.143 0.06333000000000011
673.438 0.08000000000000007
673.732 0.0733299999999999
674.025 0.08999999999999986
674.32 0.08000000000000007
674.614 0.06999999999999984
674.907 0.06999999999999984
675.202 0.06666999999999978
675.496 0.0866699999999998
675.789 0.08000000000000007
676.083 0.08000000000000007
676.378 0.0733299999999999
676.671 0.0866699999999998
676.965 0.08000000000000007
677.26 0.06333000000000011
677.552 0.09332999999999991
677.847 0.04999999999999982
678.141 0.08000000000000007
678.434 0.07667000000000002
678.729 0.06000000000000005
679.023 0.06000000000000005
679.316 0.09332999999999991
679.61 0.06000000000000005
679.905 0.06333000000000011
680.197 0.06666999999999978
680.492 0.08999999999999986
680.784 0.08999999999999986
681.078 0.0733299999999999
681.373 0.06999999999999984
681.665 0.07667000000000002
