# Created: 2019-11-28 11:43:40.324705
# rshift intensity
55.3072 0.05075280802426585
55.6331 0.05742280802426558
55.9568 0.08575280802426599
56.2826 0.06242280802426592
56.6085 0.09242280802426572
56.9343 0.06242280802426592
57.2601 0.08909280802426567
57.5859 0.05242280802426569
57.9117 0.06575280802426597
58.2374 0.07075280802426587
58.5632 0.08742280802426583
58.8889 0.0774228080242656
59.2147 0.05575280802426574
59.5382 0.10409280802426579
59.864 0.08909280802426567
60.1897 0.09742280802426562
60.5154 0.06909280802426565
60.841 0.08075280802426565
61.1667 0.06909280802426565
61.4924 0.08075280802426565
61.818 0.07575280802426576
62.1437 0.08909280802426567
62.4671 0.06909280802426565
62.7927 0.08075280802426565
63.1183 0.08742280802426583
63.4439 0.07575280802426576
63.7695 0.09242280802426572
64.0951 0.06575280802426597
64.4206 0.07075280802426587
64.744 0.0990928080242659
65.0696 0.07909280802426588
65.3951 0.0724228080242657
65.7206 0.08575280802426599
66.0461 0.10409280802426579
66.3716 0.06575280802426597
66.6971 0.08909280802426567
67.0204 0.10742280802426585
67.3459 0.09742280802426562
67.6713 0.09075280802426589
67.9967 0.09242280802426572
68.3222 0.08575280802426599
68.6476 0.07909280802426588
68.9708 0.08075280802426565
69.2962 0.08575280802426599
69.6216 0.10242280802426595
69.9469 0.10075280802426567
70.2723 0.08909280802426567
70.5976 0.10909280802426569
70.9208 0.10575280802426601
71.2461 0.07075280802426587
71.5715 0.094092808024266
71.8968 0.11242280802426574
72.222 0.12242280802426597
72.5452 0.11409280802426558
72.8704 0.10409280802426579
73.1957 0.11742280802426563
73.5209 0.12242280802426597
73.8462 0.1290928080242657
74.1692 0.1674228080242659
74.4944 0.15242280802426578
74.8196 0.14909280802426572
75.1448 0.18742280802426592
75.4678 0.22075280802426578
75.793 0.2240928080242659
76.1182 0.28075280802426583
76.4433 0.24742280802426597
76.7684 0.28075280802426583
77.0914 0.3024228080242657
77.4165 0.31909280802426565
77.7416 0.30409280802426597
78.0667 0.33909280802426567
78.3896 0.4157528080242656
78.7147 0.3407528080242659
79.0397 0.3590928080242657
79.3648 0.35075280802426567
79.6876 0.35075280802426567
80.0127 0.3707528080242657
80.3377 0.3290928080242659
80.6627 0.315752808024266
80.9855 0.29409280802426574
81.3105 0.28409280802426595
81.6354 0.2557528080242659
81.9604 0.21742280802426572
82.2832 0.2357528080242659
82.6081 0.23909280802426558
82.933 0.17909280802426597
83.2558 0.18242280802426558
83.5807 0.15575280802426583
83.9055 0.12742280802426587
84.2304 0.10075280802426567
84.5531 0.10575280802426601
84.878 0.0774228080242656
85.2028 0.08909280802426567
85.5255 0.06742280802426581
85.8503 0.0990928080242659
86.1751 0.05409280802426597
86.4978 0.06909280802426565
86.8225 0.06742280802426581
87.1473 0.0724228080242657
87.4721 0.07409280802426599
87.7947 0.06075280802426564
88.1194 0.05242280802426569
88.4441 0.045752808024265956
88.7667 0.06575280802426597
89.0914 0.07909280802426588
89.4161 0.03742280802426601
89.7386 0.05575280802426574
90.0633 0.035752808024265725
90.3879 0.06409280802426576
90.7104 0.039092808024265846
91.0351 0.027422808024265777
91.3597 0.02409280802426572
91.6822 0.04075280802426562
92.0068 0.05242280802426569
92.3314 0.059092808024265864
92.6538 0.06909280802426565
92.9784 0.04909280802426563
93.3029 0.059092808024265864
93.6253 0.05409280802426597
93.9499 0.0724228080242657
94.2722 0.06075280802426564
94.5967 0.059092808024265864
94.9212 0.04909280802426563
95.2436 0.06242280802426592
95.5681 0.039092808024265846
95.8925 0.05575280802426574
96.2149 0.06242280802426592
96.5393 0.04909280802426563
96.8616 0.05242280802426569
97.186 0.05409280802426597
97.5104 0.059092808024265864
97.8327 0.05075280802426585
98.1571 0.05242280802426569
98.4814 0.04909280802426563
98.8037 0.04075280802426562
99.128 0.045752808024265956
99.4502 0.04909280802426563
99.7746 0.04409280802426574
100.099 0.06075280802426564
100.421 0.05575280802426574
100.745 0.06242280802426592
101.067 0.06075280802426564
101.392 0.05075280802426585
101.714 0.035752808024265725
102.038 0.0724228080242657
102.362 0.047422808024265795
102.684 0.035752808024265725
103.009 0.047422808024265795
103.331 0.03242280802426567
103.655 0.05575280802426574
103.977 0.07575280802426576
104.301 0.05242280802426569
104.625 0.05742280802426558
104.947 0.0424228080242659
105.271 0.059092808024265864
105.593 0.04909280802426563
105.918 0.07409280802426599
106.24 0.06742280802426581
106.564 0.04075280802426562
106.886 0.06075280802426564
107.21 0.0724228080242657
107.534 0.09242280802426572
107.856 0.06075280802426564
108.18 0.06909280802426565
108.502 0.05742280802426558
108.826 0.07575280802426576
109.147 0.06409280802426576
109.471 0.06742280802426581
109.793 0.07409280802426599
110.117 0.07409280802426599
110.439 0.0724228080242657
110.763 0.06909280802426565
111.085 0.09075280802426589
111.409 0.0424228080242659
111.731 0.059092808024265864
112.054 0.06242280802426592
112.376 0.0424228080242659
112.7 0.07075280802426587
113.022 0.039092808024265846
113.346 0.06575280802426597
113.667 0.0724228080242657
113.991 0.045752808024265956
114.313 0.05409280802426597
114.637 0.04409280802426574
114.958 0.047422808024265795
115.282 0.05075280802426585
115.604 0.08075280802426565
115.928 0.04909280802426563
116.249 0.06909280802426565
116.573 0.04075280802426562
116.895 0.045752808024265956
117.216 0.06075280802426564
117.54 0.047422808024265795
117.862 0.07409280802426599
118.185 0.05242280802426569
118.507 0.0207528080242656
118.83 0.059092808024265864
119.152 0.07575280802426576
119.476 0.06242280802426592
119.797 0.047422808024265795
120.121 0.0424228080242659
120.442 0.045752808024265956
120.764 0.06742280802426581
121.087 0.06575280802426597
121.409 0.06242280802426592
121.732 0.059092808024265864
122.054 0.05242280802426569
122.377 0.05575280802426574
122.699 0.04909280802426563
123.02 0.04075280802426562
123.344 0.06409280802426576
123.665 0.08409280802426577
123.988 0.06242280802426592
124.31 0.05075280802426585
124.631 0.05242280802426569
124.955 0.05409280802426597
125.276 0.08575280802426599
125.599 0.08075280802426565
125.921 0.0774228080242656
126.242 0.05575280802426574
126.565 0.06909280802426565
126.887 0.059092808024265864
127.21 0.06909280802426565
127.531 0.07075280802426587
127.852 0.07575280802426576
128.176 0.09242280802426572
128.497 0.094092808024266
128.82 0.0724228080242657
129.141 0.06909280802426565
129.463 0.06742280802426581
129.786 0.0774228080242656
130.107 0.08742280802426583
130.428 0.06409280802426576
130.751 0.07575280802426576
131.073 0.07575280802426576
131.394 0.07575280802426576
131.717 0.08242280802426594
132.038 0.045752808024265956
132.361 0.05075280802426585
132.682 0.06909280802426565
133.003 0.06409280802426576
133.326 0.0424228080242659
133.647 0.047422808024265795
133.969 0.05742280802426558
134.292 0.05409280802426597
134.613 0.04075280802426562
134.934 0.04909280802426563
135.257 0.06909280802426565
135.578 0.04075280802426562
135.899 0.05242280802426569
136.22 0.022422808024265883
136.543 0.04909280802426563
136.864 0.03409280802426595
137.184 0.05242280802426569
137.507 0.05742280802426558
137.828 0.05242280802426569
138.149 0.06242280802426592
138.472 0.059092808024265864
138.793 0.06575280802426597
139.114 0.03242280802426567
139.437 0.06575280802426597
139.758 0.005752808024265921
140.078 0.05075280802426585
140.399 0.04409280802426574
140.722 0.04909280802426563
141.043 0.030752808024265832
141.364 0.039092808024265846
141.687 0.04909280802426563
142.007 0.035752808024265725
142.328 0.04075280802426562
142.649 0.04909280802426563
142.972 0.035752808024265725
143.292 0.04075280802426562
143.613 0.03409280802426595
143.934 0.0424228080242659
144.256 0.04909280802426563
144.577 0.03742280802426601
144.898 0.05742280802426558
145.218 0.035752808024265725
145.541 0.06075280802426564
145.862 0.06575280802426597
146.182 0.04909280802426563
146.503 0.04075280802426562
146.826 0.03742280802426601
147.146 0.06409280802426576
147.467 0.04409280802426574
147.787 0.03242280802426567
148.11 0.03742280802426601
148.43 0.05409280802426597
148.751 0.03742280802426601
149.071 0.012422808024265652
149.392 0.03409280802426595
149.715 0.04075280802426562
150.035 0.045752808024265956
150.355 0.045752808024265956
150.676 0.029092808024265615
150.996 0.0424228080242659
151.319 0.047422808024265795
151.639 0.019092808024265828
151.96 0.03742280802426601
152.28 0.04909280802426563
152.6 0.03242280802426567
152.923 0.027422808024265777
153.243 0.039092808024265846
153.564 0.05409280802426597
153.884 0.030752808024265832
154.204 0.04075280802426562
154.527 0.05075280802426585
154.847 0.05075280802426585
155.167 0.03242280802426567
155.488 0.039092808024265846
155.808 0.045752808024265956
156.128 0.05575280802426574
156.45 0.06909280802426565
156.771 0.06742280802426581
157.091 0.05075280802426585
157.411 0.0424228080242659
157.731 0.0424228080242659
158.052 0.04075280802426562
158.372 0.04909280802426563
158.694 0.035752808024265725
159.014 0.03742280802426601
159.334 0.0424228080242659
159.654 0.05409280802426597
159.975 0.059092808024265864
160.295 0.05242280802426569
160.615 0.05242280802426569
160.937 0.05075280802426585
161.257 0.05409280802426597
161.577 0.05075280802426585
161.897 0.03242280802426567
162.217 0.05242280802426569
162.537 0.05242280802426569
162.857 0.03409280802426595
163.177 0.07075280802426587
163.499 0.06909280802426565
163.819 0.05742280802426558
164.139 0.0424228080242659
164.459 0.045752808024265956
164.779 0.059092808024265864
165.099 0.03742280802426601
165.419 0.05742280802426558
165.739 0.06242280802426592
166.059 0.06075280802426564
166.379 0.05242280802426569
166.699 0.0424228080242659
167.021 0.047422808024265795
167.341 0.07575280802426576
167.661 0.045752808024265956
167.98 0.05242280802426569
168.3 0.04409280802426574
168.62 0.06909280802426565
168.94 0.047422808024265795
169.26 0.07075280802426587
169.58 0.05242280802426569
169.899 0.06409280802426576
170.219 0.0774228080242656
170.539 0.06075280802426564
170.859 0.059092808024265864
171.178 0.05075280802426585
171.498 0.05242280802426569
171.818 0.06075280802426564
172.137 0.06075280802426564
172.459 0.04909280802426563
172.779 0.05409280802426597
173.099 0.059092808024265864
173.418 0.05409280802426597
173.738 0.05242280802426569
174.058 0.06742280802426581
174.377 0.022422808024265883
174.697 0.05075280802426585
175.016 0.06075280802426564
175.336 0.059092808024265864
175.656 0.08575280802426599
175.975 0.06409280802426576
176.295 0.04909280802426563
176.614 0.047422808024265795
176.934 0.047422808024265795
177.253 0.039092808024265846
177.573 0.02575280802426594
177.892 0.05742280802426558
178.212 0.05742280802426558
178.531 0.04909280802426563
178.851 0.06075280802426564
179.17 0.039092808024265846
179.49 0.045752808024265956
179.809 0.047422808024265795
180.129 0.05409280802426597
180.448 0.04075280802426562
180.767 0.03742280802426601
181.087 0.02575280802426594
181.406 0.05742280802426558
181.726 0.06575280802426597
182.045 0.04075280802426562
182.362 0.05409280802426597
182.682 0.03742280802426601
183.001 0.03742280802426601
183.32 0.022422808024265883
183.64 0.03742280802426601
183.959 0.03242280802426567
184.278 0.015752808024265708
184.597 0.05742280802426558
184.917 0.02575280802426594
185.236 0.06242280802426592
185.555 0.04409280802426574
185.874 0.039092808024265846
186.194 0.0207528080242656
186.513 0.04075280802426562
186.832 0.0424228080242659
187.151 0.03409280802426595
187.47 0.045752808024265956
187.787 0.03242280802426567
188.107 0.0424228080242659
188.426 0.035752808024265725
188.745 0.04409280802426574
189.064 0.04075280802426562
189.383 0.04909280802426563
189.702 0.04909280802426563
190.021 0.045752808024265956
190.34 0.02575280802426594
190.66 0.047422808024265795
190.976 0.04409280802426574
191.296 0.027422808024265777
191.615 0.035752808024265725
191.934 0.015752808024265708
192.253 0.03409280802426595
192.572 0.05075280802426585
192.891 0.02409280802426572
193.21 0.007422808024265759
193.529 0.03409280802426595
193.845 0.05242280802426569
194.164 0.06742280802426581
194.483 0.03409280802426595
194.802 0.039092808024265846
195.121 0.035752808024265725
195.44 0.0774228080242656
195.759 0.03742280802426601
196.076 0.06742280802426581
196.395 0.027422808024265777
196.713 0.04075280802426562
197.032 0.0424228080242659
197.351 0.03742280802426601
197.67 0.035752808024265725
197.987 0.04909280802426563
198.305 0.035752808024265725
198.624 0.05242280802426569
198.943 0.047422808024265795
199.262 0.03242280802426567
199.581 0.047422808024265795
199.897 0.039092808024265846
200.216 0.03409280802426595
200.535 0.04409280802426574
200.853 0.047422808024265795
201.172 0.02575280802426594
201.491 0.05575280802426574
201.807 0.05242280802426569
202.126 0.04075280802426562
202.445 0.06075280802426564
202.763 0.059092808024265864
203.082 0.027422808024265777
203.399 0.05409280802426597
203.717 0.04409280802426574
204.036 0.02409280802426572
204.354 0.04075280802426562
204.673 0.05575280802426574
204.989 0.02409280802426572
205.308 0.02575280802426594
205.627 0.045752808024265956
205.945 0.04075280802426562
206.262 0.029092808024265615
206.58 0.03242280802426567
206.899 0.03242280802426567
207.217 0.027422808024265777
207.533 0.035752808024265725
207.852 0.02575280802426594
208.17 0.019092808024265828
208.489 0.06409280802426576
208.805 0.03409280802426595
209.124 0.015752808024265708
209.442 0.0424228080242659
209.761 0.05742280802426558
210.077 0.047422808024265795
210.395 0.03409280802426595
210.714 0.04075280802426562
211.032 0.027422808024265777
211.348 0.029092808024265615
211.667 0.035752808024265725
211.985 0.05575280802426574
212.303 0.03742280802426601
212.619 0.03242280802426567
212.938 0.027422808024265777
213.256 0.06742280802426581
213.572 0.039092808024265846
213.89 0.045752808024265956
214.209 0.047422808024265795
214.527 0.030752808024265832
214.843 0.04909280802426563
215.161 0.03742280802426601
215.48 0.029092808024265615
215.796 0.05075280802426585
216.114 0.04909280802426563
216.432 0.05075280802426585
216.748 0.06409280802426576
217.066 0.045752808024265956
217.384 0.06409280802426576
217.703 0.045752808024265956
218.019 0.059092808024265864
218.337 0.0724228080242657
218.655 0.06409280802426576
218.971 0.05409280802426597
219.289 0.05409280802426597
219.607 0.06409280802426576
219.923 0.06075280802426564
220.241 0.04075280802426562
220.559 0.05409280802426597
220.875 0.07075280802426587
221.193 0.05575280802426574
221.511 0.0424228080242659
221.827 0.05242280802426569
222.145 0.04909280802426563
222.461 0.05575280802426574
222.779 0.05075280802426585
223.097 0.05409280802426597
223.413 0.06075280802426564
223.731 0.06409280802426576
224.048 0.06909280802426565
224.364 0.05075280802426585
224.682 0.06075280802426564
225.0 0.03742280802426601
225.316 0.06909280802426565
225.634 0.0724228080242657
225.949 0.06575280802426597
226.267 0.05409280802426597
226.585 0.04909280802426563
226.901 0.07909280802426588
227.219 0.05575280802426574
227.534 0.07409280802426599
227.852 0.0774228080242656
228.17 0.04409280802426574
228.486 0.05075280802426585
228.803 0.059092808024265864
229.119 0.10242280802426595
229.437 0.08242280802426594
229.755 0.07909280802426588
230.07 0.0724228080242657
230.388 0.08075280802426565
230.703 0.035752808024265725
231.021 0.08909280802426567
231.337 0.07075280802426587
231.654 0.06742280802426581
231.972 0.09242280802426572
232.288 0.08575280802426599
232.605 0.059092808024265864
232.921 0.07075280802426587
233.238 0.08909280802426567
233.554 0.08242280802426594
233.871 0.0990928080242659
234.189 0.09742280802426562
234.504 0.06742280802426581
234.822 0.059092808024265864
235.137 0.09742280802426562
235.455 0.08242280802426594
235.77 0.09575280802426578
236.088 0.059092808024265864
236.403 0.08742280802426583
236.721 0.09242280802426572
237.036 0.10075280802426567
237.354 0.0774228080242656
237.669 0.07075280802426587
237.986 0.08075280802426565
238.302 0.07409280802426599
238.619 0.0724228080242657
238.935 0.06909280802426565
239.252 0.0724228080242657
239.567 0.07575280802426576
239.885 0.05575280802426574
240.202 0.07409280802426599
240.517 0.07409280802426599
240.833 0.07075280802426587
241.15 0.0990928080242659
241.465 0.06242280802426592
241.782 0.07075280802426587
242.098 0.08075280802426565
242.415 0.08242280802426594
242.73 0.0774228080242656
243.047 0.08575280802426599
243.363 0.08242280802426594
243.68 0.06242280802426592
243.995 0.06409280802426576
244.312 0.06575280802426597
244.627 0.05575280802426574
244.945 0.06075280802426564
245.26 0.08242280802426594
245.577 0.05242280802426569
245.892 0.059092808024265864
246.209 0.0774228080242656
246.524 0.06575280802426597
246.839 0.03409280802426595
247.156 0.047422808024265795
247.471 0.03242280802426567
247.788 0.039092808024265846
248.103 0.05575280802426574
248.421 0.05742280802426558
248.735 0.059092808024265864
249.053 0.06075280802426564
249.368 0.04909280802426563
249.682 0.03409280802426595
249.999 0.06409280802426576
250.314 0.059092808024265864
250.631 0.05575280802426574
250.946 0.0424228080242659
251.261 0.05075280802426585
251.578 0.06409280802426576
251.893 0.047422808024265795
252.21 0.03242280802426567
252.525 0.05409280802426597
252.842 0.05242280802426569
253.157 0.06075280802426564
253.472 0.039092808024265846
253.788 0.05409280802426597
254.103 0.05075280802426585
254.418 0.05242280802426569
254.735 0.05242280802426569
255.05 0.06075280802426564
255.367 0.047422808024265795
255.681 0.045752808024265956
255.996 0.04909280802426563
256.313 0.06242280802426592
256.628 0.03242280802426567
256.942 0.047422808024265795
257.259 0.027422808024265777
257.574 0.05575280802426574
257.89 0.027422808024265777
258.205 0.05075280802426585
258.52 0.05242280802426569
258.837 0.04075280802426562
259.151 0.045752808024265956
259.466 0.05742280802426558
259.782 0.030752808024265832
260.097 0.0724228080242657
260.412 0.047422808024265795
260.728 0.05409280802426597
261.043 0.039092808024265846
261.357 0.04409280802426574
261.674 0.03409280802426595
261.989 0.06742280802426581
262.303 0.05075280802426585
262.62 0.04909280802426563
262.934 0.039092808024265846
263.249 0.04909280802426563
263.565 0.05075280802426585
263.88 0.0724228080242657
264.194 0.045752808024265956
264.511 0.0724228080242657
264.825 0.05409280802426597
265.14 0.06075280802426564
265.454 0.03242280802426567
265.771 0.03409280802426595
266.085 0.039092808024265846
266.399 0.05242280802426569
266.716 0.06409280802426576
267.03 0.059092808024265864
267.344 0.04909280802426563
267.659 0.039092808024265846
267.975 0.045752808024265956
268.29 0.06075280802426564
268.604 0.06242280802426592
268.92 0.0424228080242659
269.235 0.06742280802426581
269.549 0.04909280802426563
269.863 0.05575280802426574
270.179 0.06409280802426576
270.494 0.07075280802426587
270.808 0.05075280802426585
271.122 0.07075280802426587
271.438 0.039092808024265846
271.753 0.06409280802426576
272.067 0.04409280802426574
272.381 0.07409280802426599
272.697 0.06575280802426597
273.011 0.06409280802426576
273.326 0.05409280802426597
273.64 0.047422808024265795
273.956 0.04075280802426562
274.27 0.027422808024265777
274.584 0.0774228080242656
274.898 0.04909280802426563
275.212 0.059092808024265864
275.528 0.0424228080242659
275.843 0.05575280802426574
276.157 0.0724228080242657
276.471 0.03409280802426595
276.787 0.039092808024265846
277.101 0.05242280802426569
277.415 0.05409280802426597
277.729 0.05242280802426569
278.043 0.06575280802426597
278.359 0.059092808024265864
278.673 0.03409280802426595
278.987 0.05075280802426585
279.301 0.06575280802426597
279.615 0.06742280802426581
279.929 0.07575280802426576
280.245 0.05075280802426585
280.558 0.04075280802426562
280.872 0.04075280802426562
281.186 0.05575280802426574
281.5 0.039092808024265846
281.814 0.045752808024265956
282.13 0.06242280802426592
282.444 0.06075280802426564
282.758 0.05409280802426597
283.071 0.04075280802426562
283.385 0.03242280802426567
283.699 0.06575280802426597
284.015 0.05075280802426585
284.329 0.04909280802426563
284.642 0.05742280802426558
284.956 0.07075280802426587
285.27 0.0774228080242656
285.584 0.047422808024265795
285.897 0.0774228080242656
286.213 0.05409280802426597
286.527 0.0724228080242657
286.841 0.07409280802426599
287.154 0.06242280802426592
287.468 0.05075280802426585
287.782 0.04909280802426563
288.095 0.07075280802426587
288.409 0.0724228080242657
288.722 0.0774228080242656
289.038 0.07075280802426587
289.352 0.05075280802426585
289.665 0.0724228080242657
289.979 0.08909280802426567
290.293 0.08242280802426594
290.606 0.06742280802426581
290.92 0.06409280802426576
291.233 0.05075280802426585
291.547 0.08242280802426594
291.86 0.08575280802426599
292.176 0.059092808024265864
292.489 0.06909280802426565
292.803 0.08242280802426594
293.116 0.05742280802426558
293.43 0.05242280802426569
293.743 0.07909280802426588
294.057 0.06075280802426564
294.37 0.039092808024265846
294.683 0.05742280802426558
294.997 0.05075280802426585
295.31 0.06242280802426592
295.624 0.06242280802426592
295.937 0.06409280802426576
296.25 0.05242280802426569
296.564 0.07909280802426588
296.877 0.047422808024265795
297.19 0.06075280802426564
297.504 0.07575280802426576
297.819 0.05742280802426558
298.133 0.03742280802426601
298.446 0.08075280802426565
298.759 0.04909280802426563
299.072 0.06075280802426564
299.386 0.047422808024265795
299.699 0.06409280802426576
300.012 0.06075280802426564
300.325 0.05409280802426597
300.639 0.045752808024265956
300.952 0.08242280802426594
301.265 0.04075280802426562
301.578 0.05075280802426585
301.891 0.07075280802426587
302.205 0.08075280802426565
302.518 0.07909280802426588
302.831 0.06742280802426581
303.144 0.05075280802426585
303.457 0.06242280802426592
303.77 0.06242280802426592
304.083 0.059092808024265864
304.396 0.05075280802426585
304.709 0.06575280802426597
305.023 0.06909280802426565
305.336 0.08909280802426567
305.649 0.05409280802426597
305.962 0.06242280802426592
306.273 0.045752808024265956
306.586 0.06909280802426565
306.899 0.08742280802426583
307.212 0.07075280802426587
307.525 0.0724228080242657
307.838 0.07075280802426587
308.151 0.04409280802426574
308.464 0.06575280802426597
308.777 0.07909280802426588
309.089 0.05575280802426574
309.402 0.094092808024266
309.715 0.08242280802426594
310.028 0.059092808024265864
310.341 0.05575280802426574
310.654 0.09075280802426589
310.967 0.1157528080242658
311.28 0.07409280802426599
311.593 0.08409280802426577
311.903 0.08075280802426565
312.216 0.07409280802426599
312.529 0.094092808024266
312.842 0.06742280802426581
313.155 0.06575280802426597
313.467 0.07909280802426588
313.78 0.08409280802426577
314.093 0.09242280802426572
314.406 0.11242280802426574
314.718 0.08742280802426583
315.029 0.09242280802426572
315.342 0.08409280802426577
315.654 0.11742280802426563
315.967 0.11409280802426558
316.28 0.08575280802426599
316.593 0.09242280802426572
316.905 0.08909280802426567
317.218 0.0990928080242659
317.531 0.094092808024266
317.841 0.0990928080242659
318.154 0.09575280802426578
318.466 0.08909280802426567
318.779 0.10575280802426601
319.092 0.08909280802426567
319.404 0.10575280802426601
319.717 0.10242280802426595
320.027 0.11742280802426563
320.34 0.1290928080242657
320.652 0.0990928080242659
320.965 0.0990928080242659
321.277 0.13575280802426581
321.59 0.10909280802426569
321.9 0.12075280802426569
322.213 0.1290928080242657
322.525 0.09075280802426589
322.838 0.10742280802426585
323.15 0.12575280802426558
323.463 0.12409280802426581
323.773 0.0990928080242659
324.085 0.15075280802426594
324.398 0.08409280802426577
324.71 0.12575280802426558
325.023 0.142422808024266
325.333 0.09742280802426562
325.645 0.1407528080242657
325.958 0.12409280802426581
326.27 0.12742280802426587
326.582 0.12242280802426597
326.893 0.1107528080242659
327.205 0.1157528080242658
327.517 0.12242280802426597
327.83 0.11242280802426574
328.142 0.1157528080242658
328.452 0.12742280802426587
328.764 0.11409280802426558
329.077 0.13909280802426593
329.389 0.1340928080242656
329.701 0.12742280802426587
330.011 0.12742280802426587
330.323 0.10409280802426579
330.636 0.1340928080242656
330.948 0.1290928080242657
331.258 0.142422808024266
331.57 0.1407528080242657
331.882 0.13242280802426576
332.194 0.13075280802426592
332.504 0.11742280802426563
332.817 0.1457528080242656
333.129 0.12075280802426569
333.441 0.12742280802426587
333.751 0.10909280802426569
334.063 0.1290928080242657
334.375 0.11909280802426592
334.685 0.12409280802426581
334.997 0.12575280802426558
335.309 0.10909280802426569
335.621 0.10075280802426567
335.931 0.12575280802426558
336.243 0.14409280802426583
336.555 0.142422808024266
336.867 0.10909280802426569
337.177 0.13575280802426581
337.489 0.14409280802426583
337.801 0.13742280802426565
338.111 0.15242280802426578
338.423 0.12242280802426597
338.735 0.13242280802426576
339.045 0.12242280802426597
339.356 0.12075280802426569
339.668 0.11742280802426563
339.978 0.1340928080242656
340.29 0.15075280802426594
340.602 0.1157528080242658
340.914 0.1107528080242659
341.224 0.12409280802426581
341.535 0.12075280802426569
341.847 0.12242280802426597
342.157 0.11742280802426563
342.469 0.12575280802426558
342.781 0.13242280802426576
343.09 0.14409280802426583
343.402 0.14909280802426572
343.714 0.12742280802426587
344.023 0.1407528080242657
344.335 0.1674228080242659
344.645 0.15409280802426562
344.957 0.15075280802426594
345.268 0.13075280802426592
345.578 0.16409280802426585
345.89 0.1457528080242656
346.201 0.1340928080242656
346.511 0.13575280802426581
346.823 0.13742280802426565
347.134 0.1457528080242656
347.444 0.1340928080242656
347.755 0.162422808024266
348.065 0.14909280802426572
348.376 0.15242280802426578
348.688 0.17909280802426597
348.998 0.14742280802426588
349.309 0.15075280802426594
349.619 0.142422808024266
349.93 0.1457528080242656
350.242 0.15242280802426578
350.551 0.16909280802426574
350.863 0.17409280802426563
351.172 0.15409280802426562
351.484 0.14909280802426572
351.795 0.14409280802426583
352.105 0.15075280802426594
352.416 0.1724228080242658
352.725 0.162422808024266
353.037 0.1290928080242657
353.346 0.15242280802426578
353.658 0.1674228080242659
353.969 0.18409280802426586
354.278 0.1724228080242658
354.59 0.15742280802426567
354.899 0.15909280802426595
355.211 0.18075280802426574
355.52 0.15409280802426562
355.831 0.1774228080242657
356.142 0.15242280802426578
356.452 0.1774228080242657
356.763 0.1924228080242658
357.072 0.16575280802426562
357.384 0.15575280802426583
357.693 0.1407528080242657
358.004 0.15575280802426583
358.313 0.15575280802426583
358.625 0.11909280802426592
358.934 0.14909280802426572
359.245 0.14742280802426588
359.554 0.1674228080242659
359.865 0.14909280802426572
360.174 0.16575280802426562
360.486 0.1340928080242656
360.795 0.1457528080242656
361.106 0.16909280802426574
361.415 0.14409280802426583
361.726 0.1457528080242656
362.035 0.18075280802426574
362.346 0.15075280802426594
362.655 0.15242280802426578
362.967 0.15909280802426595
363.276 0.1724228080242658
363.587 0.13242280802426576
363.896 0.15575280802426583
364.207 0.15742280802426567
364.516 0.15242280802426578
364.827 0.1674228080242659
365.136 0.1407528080242657
365.447 0.1407528080242657
365.756 0.14909280802426572
366.067 0.15575280802426583
366.376 0.17075280802426596
366.687 0.18575280802426564
366.996 0.14409280802426583
367.307 0.142422808024266
367.615 0.15575280802426583
367.924 0.15575280802426583
368.235 0.1924228080242658
368.544 0.13909280802426593
368.855 0.17575280802426585
369.164 0.14409280802426583
369.475 0.16409280802426585
369.784 0.1674228080242659
370.094 0.15075280802426594
370.403 0.17575280802426585
370.712 0.18575280802426564
371.023 0.1724228080242658
371.332 0.14909280802426572
371.642 0.18575280802426564
371.951 0.15242280802426578
372.262 0.18575280802426564
372.571 0.17575280802426585
372.879 0.1774228080242657
373.19 0.1774228080242657
373.499 0.13742280802426565
373.81 0.16575280802426562
374.118 0.16409280802426585
374.427 0.15909280802426595
374.738 0.13909280802426593
375.046 0.18409280802426586
375.357 0.18075280802426574
375.666 0.16575280802426562
375.974 0.15742280802426567
376.285 0.18742280802426592
376.593 0.17409280802426563
376.902 0.162422808024266
377.213 0.13909280802426593
377.521 0.1774228080242657
377.832 0.1674228080242659
378.14 0.16409280802426585
378.449 0.17409280802426563
378.759 0.1924228080242658
379.068 0.13742280802426565
379.376 0.1674228080242659
379.687 0.1724228080242658
379.995 0.15909280802426595
380.304 0.1674228080242659
380.614 0.1674228080242659
380.923 0.13075280802426592
381.231 0.1774228080242657
381.542 0.16409280802426585
381.85 0.17909280802426597
382.159 0.19075280802426597
382.469 0.15409280802426562
382.777 0.17409280802426563
383.086 0.19575280802426587
383.396 0.19409280802426565
383.705 0.1774228080242657
384.013 0.1674228080242659
384.323 0.16075280802426573
384.632 0.19075280802426597
384.94 0.20075280802426576
385.25 0.23242280802426585
385.559 0.18909280802426576
385.867 0.17409280802426563
386.175 0.1974228080242657
386.485 0.18075280802426574
386.794 0.2024228080242656
387.102 0.19575280802426587
387.412 0.1974228080242657
387.72 0.19575280802426587
388.029 0.18909280802426576
388.337 0.2024228080242656
388.647 0.1974228080242657
388.955 0.21742280802426572
389.263 0.1774228080242657
389.571 0.1974228080242657
389.882 0.24409280802426592
390.19 0.20409280802426588
390.498 0.21409280802426567
390.808 0.1924228080242658
391.116 0.18575280802426564
391.424 0.22242280802426562
391.732 0.2024228080242656
392.042 0.18742280802426592
392.351 0.2024228080242656
392.659 0.24742280802426597
392.967 0.20409280802426588
393.275 0.22575280802426567
393.585 0.19575280802426587
393.893 0.23909280802426558
394.201 0.24409280802426592
394.509 0.22075280802426578
394.819 0.22242280802426562
395.127 0.20909280802426577
395.435 0.3024228080242657
395.743 0.23742280802426574
396.051 0.23742280802426574
396.361 0.22242280802426562
396.668 0.22575280802426567
396.976 0.210752808024266
397.284 0.2340928080242657
397.592 0.22575280802426567
397.902 0.28075280802426583
398.21 0.25742280802426576
398.518 0.23909280802426558
398.826 0.26909280802426583
399.133 0.2724228080242659
399.443 0.2707528080242656
399.751 0.28409280802426595
400.059 0.2657528080242657
400.367 0.25742280802426576
400.674 0.19575280802426587
400.982 0.26409280802426593
401.292 0.1974228080242657
401.6 0.2740928080242657
401.908 0.24742280802426597
402.215 0.2607528080242658
402.523 0.2774228080242658
402.831 0.2507528080242656
403.14 0.267422808024266
403.448 0.2857528080242657
403.756 0.2774228080242658
404.063 0.2924228080242659
404.371 0.2857528080242657
404.679 0.3224228080242657
404.986 0.33075280802426565
405.296 0.3707528080242657
405.604 0.33909280802426567
405.911 0.33909280802426567
406.219 0.3690928080242659
406.526 0.335752808024266
406.834 0.335752808024266
407.142 0.33075280802426565
407.449 0.3590928080242657
407.759 0.3424228080242657
408.066 0.36742280802426563
408.374 0.36742280802426563
408.681 0.3740928080242658
408.989 0.3857528080242658
409.296 0.38909280802426593
409.604 0.39409280802426583
409.911 0.35242280802426595
410.219 0.38742280802426565
410.526 0.39409280802426583
410.834 0.43075280802426574
411.143 0.3957528080242656
411.45 0.4590928080242658
411.758 0.4024228080242658
412.065 0.4274228080242657
412.373 0.42575280802426585
412.68 0.4374228080242659
412.987 0.47575280802426567
413.295 0.4540928080242659
413.602 0.4274228080242657
413.909 0.4740928080242659
414.217 0.4790928080242658
414.524 0.45575280802426565
414.831 0.4857528080242659
415.139 0.4940928080242659
415.446 0.4790928080242658
415.753 0.49242280802426563
416.06 0.48742280802426574
416.37 0.5257528080242659
416.677 0.5157528080242657
416.984 0.5040928080242657
417.291 0.5140928080242659
417.599 0.5057528080242659
417.906 0.5124228080242657
418.213 0.5107528080242658
418.52 0.5357528080242657
418.827 0.537422808024266
419.135 0.534092808024266
419.442 0.5507528080242658
419.749 0.5124228080242657
420.056 0.5574228080242656
420.363 0.545752808024266
420.67 0.594092808024266
420.977 0.5924228080242657
421.284 0.6257528080242656
421.591 0.5507528080242658
421.899 0.6107528080242659
422.206 0.6040928080242658
422.513 0.6007528080242657
422.82 0.5840928080242658
423.127 0.622422808024266
423.434 0.6074228080242658
423.741 0.5907528080242659
424.048 0.5990928080242659
424.355 0.5957528080242658
424.662 0.5957528080242658
424.967 0.5874228080242658
425.274 0.5807528080242657
425.58 0.5840928080242658
425.887 0.5907528080242659
426.194 0.6174228080242656
426.501 0.6007528080242657
426.808 0.5624228080242659
427.115 0.605752808024266
427.422 0.5824228080242659
427.729 0.6007528080242657
428.036 0.5490928080242656
428.342 0.5690928080242657
428.649 0.5807528080242657
428.956 0.6124228080242657
429.263 0.5690928080242657
429.57 0.5390928080242658
429.875 0.5607528080242656
430.181 0.5440928080242657
430.488 0.5207528080242656
430.795 0.5190928080242658
431.102 0.554092808024266
431.408 0.5440928080242657
431.715 0.5207528080242656
432.022 0.5107528080242658
432.329 0.5090928080242656
432.635 0.4840928080242657
432.942 0.5157528080242657
433.247 0.5140928080242659
433.553 0.5090928080242656
433.86 0.5140928080242659
434.167 0.49242280802426563
434.473 0.4957528080242657
434.78 0.440752808024266
435.087 0.47742280802426595
435.393 0.44575280802426587
435.698 0.45575280802426565
436.004 0.43575280802426564
436.311 0.45575280802426565
436.617 0.4224228080242658
436.924 0.4424228080242658
437.231 0.44409280802426565
437.537 0.4174228080242659
437.842 0.412422808024266
438.148 0.4590928080242658
438.455 0.41909280802426574
438.761 0.43075280802426574
439.068 0.3857528080242658
439.374 0.40742280802426567
439.681 0.38909280802426593
439.985 0.41909280802426574
440.291 0.40075280802426594
440.598 0.40575280802426583
440.904 0.4040928080242656
441.211 0.36742280802426563
441.515 0.38742280802426565
441.822 0.3290928080242659
442.128 0.35742280802426585
442.434 0.40075280802426594
442.741 0.3740928080242658
443.047 0.3590928080242657
443.351 0.3907528080242657
443.658 0.3690928080242659
443.964 0.3657528080242658
444.27 0.3657528080242658
444.575 0.37742280802426587
444.881 0.3640928080242656
445.187 0.3407528080242659
445.493 0.3640928080242656
445.8 0.324092808024266
446.104 0.3174228080242658
446.41 0.3457528080242658
446.716 0.3274228080242656
447.023 0.3640928080242656
447.327 0.355752808024266
447.633 0.35742280802426585
447.939 0.3290928080242659
448.245 0.35242280802426595
448.552 0.31409280802426576
448.856 0.33242280802426594
449.162 0.33909280802426567
449.468 0.32575280802426576
449.774 0.31409280802426576
450.078 0.3224228080242657
450.384 0.30409280802426597
450.69 0.29575280802426596
450.994 0.2924228080242659
451.3 0.2974228080242658
451.607 0.28909280802426585
451.913 0.2707528080242656
452.217 0.31409280802426576
452.523 0.2740928080242657
452.829 0.31909280802426565
453.135 0.2790928080242656
453.439 0.2907528080242656
453.745 0.2790928080242656
454.051 0.2607528080242658
454.355 0.287422808024266
454.661 0.2724228080242659
454.967 0.2490928080242658
455.27 0.2490928080242658
455.576 0.24242280802426563
455.882 0.2607528080242658
456.188 0.2540928080242657
456.492 0.23242280802426585
456.798 0.23742280802426574
457.104 0.25242280802426587
457.408 0.26242280802426565
457.714 0.2490928080242658
458.019 0.25242280802426587
458.323 0.26242280802426565
458.629 0.2407528080242658
458.935 0.2290928080242658
459.239 0.2607528080242658
459.544 0.21575280802426589
459.85 0.2407528080242658
460.154 0.24742280802426597
460.46 0.2507528080242656
460.766 0.2507528080242656
461.069 0.22742280802426595
461.375 0.2290928080242658
461.681 0.20909280802426577
461.984 0.20409280802426588
462.29 0.23242280802426585
462.594 0.20075280802426576
462.9 0.21575280802426589
463.205 0.21575280802426589
463.509 0.20742280802426594
463.814 0.22742280802426595
464.12 0.2457528080242657
464.424 0.21409280802426567
464.729 0.21575280802426589
465.033 0.2240928080242659
465.339 0.24409280802426592
465.644 0.2407528080242658
465.948 0.22242280802426562
466.253 0.210752808024266
466.557 0.22242280802426562
466.862 0.25242280802426587
467.168 0.2507528080242656
467.471 0.24242280802426563
467.777 0.20575280802426565
468.08 0.24242280802426563
468.386 0.230752808024266
468.691 0.26409280802426593
468.995 0.2507528080242656
469.3 0.22075280802426578
469.604 0.23742280802426574
469.909 0.2457528080242657
470.213 0.21242280802426583
470.518 0.24742280802426597
470.824 0.2557528080242659
471.127 0.2507528080242656
471.432 0.2357528080242659
471.736 0.2407528080242658
472.041 0.23909280802426558
472.344 0.24409280802426592
472.65 0.26242280802426565
472.953 0.2557528080242659
473.258 0.23742280802426574
473.562 0.23909280802426558
473.867 0.25242280802426587
474.172 0.29409280802426574
474.476 0.2540928080242657
474.781 0.26242280802426565
475.084 0.2724228080242659
475.39 0.24242280802426563
475.693 0.26242280802426565
475.998 0.26242280802426565
476.301 0.24742280802426597
476.606 0.2457528080242657
476.91 0.2924228080242659
477.215 0.28909280802426585
477.518 0.2740928080242657
477.823 0.3790928080242657
478.126 0.4040928080242656
478.432 0.4790928080242658
478.735 0.5274228080242658
479.04 0.5224228080242659
479.343 0.5157528080242657
479.648 0.5757528080242658
479.951 0.565752808024266
480.256 0.5507528080242658
480.559 0.5590928080242659
480.864 0.5724228080242657
481.167 0.5407528080242656
481.47 0.565752808024266
481.776 0.585752808024266
482.079 0.5474228080242658
482.384 0.5290928080242656
482.687 0.5040928080242657
482.992 0.5590928080242659
483.295 0.517422808024266
483.6 0.5757528080242658
483.903 0.5607528080242656
484.208 0.5674228080242658
484.51 0.5040928080242657
484.813 0.5040928080242657
485.118 0.4957528080242657
485.421 0.4107528080242657
485.726 0.2907528080242656
486.029 0.287422808024266
486.334 0.29409280802426574
486.637 0.27575280802426594
486.94 0.26242280802426565
487.245 0.267422808024266
487.547 0.2457528080242657
487.852 0.27575280802426594
488.155 0.2774228080242658
488.458 0.2857528080242657
488.763 0.22075280802426578
489.066 0.2507528080242656
489.37 0.22075280802426578
489.673 0.2557528080242659
489.976 0.2540928080242657
490.281 0.24742280802426597
490.583 0.23242280802426585
490.888 0.20909280802426577
491.191 0.20575280802426565
491.494 0.21409280802426567
491.798 0.210752808024266
492.101 0.21742280802426572
492.404 0.22742280802426595
492.708 0.2024228080242656
493.011 0.20909280802426577
493.316 0.21575280802426589
493.618 0.19575280802426587
493.921 0.21742280802426572
494.226 0.18575280802426564
494.528 0.18242280802426558
494.831 0.20409280802426588
495.135 0.17575280802426585
495.438 0.1774228080242657
495.741 0.18575280802426564
496.045 0.16409280802426585
496.348 0.1974228080242657
496.65 0.17075280802426596
496.955 0.18409280802426586
497.257 0.18409280802426586
497.56 0.18742280802426592
497.864 0.16909280802426574
498.167 0.199092808024266
498.469 0.17575280802426585
498.774 0.1724228080242658
499.076 0.16075280802426573
499.379 0.17409280802426563
499.683 0.15742280802426567
499.9695 0.15454140401213268
500.2735 0.15704640401213288
500.578 0.16954640401213283
500.8845 0.1737114040121328
501.18899999999996 0.14787640401213298
501.49350000000004 0.1587114040121329
501.799 0.16287640401213288
502.104 0.13787640401213275
502.409 0.13037640401213269
502.71299999999997 0.14954640401213282
503.01800000000003 0.15537640401213282
503.32399999999996 0.12704640401213285
503.62800000000004 0.139541404012133
503.9325 0.14621140401213295
504.238 0.15454640401213293
504.543 0.13871140401213267
504.84749999999997 0.13704640401213286
505.15250000000003 0.16121140401213285
505.457 0.14704640401213287
505.7615 0.1487114040121329
506.0665 0.13954140401213277
506.37149999999997 0.14787640401213276
506.67600000000004 0.13871140401213267
506.9805 0.16121140401213285
507.2845 0.14288140401213267
507.58950000000004 0.16204140401213274
507.895 0.15204140401213273
508.199 0.15621140401213296
508.50300000000004 0.1537114040121328
508.8075 0.13038140401213272
509.11400000000003 0.14621140401213273
509.418 0.14954640401213304
509.722 0.13704140401213305
510.026 0.15454640401213293
510.33000000000004 0.1637114040121328
510.635 0.1595414040121328
510.94050000000004 0.14204140401213294
511.2445 0.14954140401213278
511.5485 0.12038140401213293
511.8525 0.1587114040121329
512.1575 0.13954640401213303
512.4615 0.13204640401213275
512.7665 0.16121140401213285
513.0705 0.16621140401213297
513.3745 0.153711404012133
513.6795 0.12538140401213282
513.9835 0.1587114040121329
514.1345 0.16037640401213293
514.4385 0.1303764040121329
514.7425000000001 0.17121140401213286
515.0475 0.14371140401213278
515.3525 0.17121140401213286
515.6565 0.1387114040121329
515.9605 0.15454640401213293
516.2645 0.15037640401213292
516.5685000000001 0.18621140401213276
516.8725 0.16621140401213275
517.1769999999999 0.15204640401213276
517.482 0.1670464040121329
517.7860000000001 0.17204640401213278
518.09 0.16954140401213302
518.394 0.17204640401213278
518.6975 0.1637114040121328
519.0015 0.16704140401213285
519.3054999999999 0.16371140401213302
519.61 0.16621140401213275
519.914 0.17454140401213292
520.2175 0.15537640401213282
520.5225 0.18537640401213284
520.8265 0.19371140401213283
521.1305 0.1953814040121329
521.4335000000001 0.17621140401213298
521.7375 0.21537640401213287
522.0425 0.17454140401213292
522.346 0.2012114040121329
522.6495 0.187876404012133
522.9535000000001 0.196211404012133
523.2570000000001 0.18954640401213285
523.5605 0.1970464040121327
523.8644999999999 0.18621140401213276
524.168 0.21454640401213276
524.472 0.21204640401213282
524.7760000000001 0.19454640401213297
525.0799999999999 0.19871140401213294
525.384 0.196211404012133
525.688 0.21037640401213276
525.992 0.22788140401213286
526.2955 0.206211404012133
526.5989999999999 0.21787640401213282
526.9025 0.21954140401213285
527.206 0.21537640401213287
527.5095 0.2295464040121329
527.813 0.19371140401213283
528.1165000000001 0.206211404012133
528.4205 0.22371140401213285
528.7235000000001 0.19371140401213283
529.0275 0.22454640401213277
529.3305 0.20954640401213287
529.6345 0.22871140401213297
529.9375 0.22704640401213294
530.2415000000001 0.2020464040121328
530.5445 0.21204640401213282
530.848 0.23204640401213306
531.1514999999999 0.21787640401213282
531.4549999999999 0.2162114040121328
531.7584999999999 0.2353764040121329
532.0615 0.22371140401213285
532.365 0.2112114040121329
532.6685 0.23038140401213303
532.972 0.2170414040121329
533.275 0.23787640401213306
533.5785 0.22787640401213283
533.8820000000001 0.2162114040121328
534.185 0.20204140401213277
534.4884999999999 0.220376404012133
534.792 0.23704140401213292
535.095 0.23454640401213278
535.3985 0.22288140401213297
535.7015 0.2603764040121328
536.005 0.2445464040121328
536.308 0.2562114040121328
536.6115 0.25621140401213305
536.762 0.24204140401213303
537.0654999999999 0.24621140401213282
537.3685 0.22704640401213272
537.672 0.262881404012133
537.975 0.23204640401213306
538.278 0.2653764040121329
538.5799999999999 0.24371140401213287
538.883 0.258711404012133
539.1865 0.2495464040121329
539.49 0.2595464040121329
539.793 0.26287640401213297
540.096 0.2687114040121328
540.399 0.26538140401213295
540.702 0.2353764040121329
541.005 0.2645414040121328
541.3074999999999 0.28121140401213274
541.6105 0.26621140401213284
541.9135 0.27038140401213284
542.2165 0.25287640401213296
542.5195 0.26621140401213284
542.8215 0.2745464040121328
543.1245 0.2645414040121328
543.4275 0.268711404012133
543.7305 0.26204640401213286
544.0335 0.2878814040121329
544.3365 0.2645414040121328
544.6395 0.2653764040121329
544.9414999999999 0.2837114040121329
545.2445 0.28121140401213296
545.5465 0.28038140401213285
545.8495 0.25621140401213305
546.1525 0.2937114040121329
546.4549999999999 0.2837114040121327
546.758 0.27204140401213306
547.0609999999999 0.287046404012133
547.363 0.282876404012133
547.6659999999999 0.2753764040121329
547.9680000000001 0.2803764040121328
548.271 0.29121140401213297
548.5730000000001 0.268711404012133
548.876 0.26287640401213297
549.179 0.25704640401213275
549.482 0.2695464040121329
549.784 0.2645464040121328
550.0854999999999 0.29954640401213295
550.388 0.2637114040121329
550.691 0.288711404012133
550.9939999999999 0.26121140401213294
551.2964999999999 0.22454140401213274
551.5985000000001 0.26287640401213297
551.9010000000001 0.24538140401213293
552.2025000000001 0.2587114040121328
552.5055 0.26204640401213286
552.8085000000001 0.24038140401213282
553.1105 0.2503764040121328
553.4124999999999 0.2128764040121327
553.7145 0.22204640401213283
554.0165 0.23538140401213292
554.3195000000001 0.22371140401213285
554.622 0.20454640401213298
554.9235000000001 0.2262114040121328
555.2265 0.21454640401213299
555.528 0.2162114040121328
555.8305 0.21121140401213268
556.133 0.20454140401213272
556.435 0.206211404012133
556.7375 0.2012114040121329
557.039 0.19037640401213274
557.3415 0.19871140401213294
557.644 0.17454640401213273
557.9459999999999 0.2070414040121329
558.247 0.1920464040121328
558.55 0.18454140401213293
558.852 0.17121140401213286
559.1534999999999 0.1687114040121327
559.304 0.16621140401213275
559.606 0.16788140401213303
559.908 0.1595414040121328
560.2090000000001 0.15954140401213301
560.512 0.167876404012133
560.8140000000001 0.16621140401213275
561.1155 0.17288140401213292
561.417 0.14954640401213304
561.719 0.15454640401213293
562.022 0.162046404012133
562.323 0.14954640401213282
562.6245 0.1478814040121328
562.927 0.12954640401213302
563.229 0.1428814040121329
563.5305 0.13704640401213286
563.832 0.137881404012133
564.1345 0.12287640401213284
564.4365 0.13371140401213277
564.7375 0.13121140401213283
565.0395 0.14204640401213275
565.3415 0.14204640401213275
565.6424999999999 0.127881404012133
565.9435000000001 0.1203764040121329
566.2465 0.13204640401213297
566.5485 0.11287640401213284
566.8485000000001 0.11038140401213292
567.1510000000001 0.13454140401213288
567.453 0.08871140401213307
567.7545 0.11204140401213292
568.0554999999999 0.10454640401213289
568.3575000000001 0.12954640401213302
568.6600000000001 0.11287640401213284
568.96 0.10454640401213289
569.262 0.1345464040121327
569.5640000000001 0.10037640401213288
569.864 0.11537640401213278
570.1665 0.12704140401213282
570.469 0.11454140401213286
570.769 0.10204640401213272
571.0709999999999 0.09287640401213282
571.373 0.10121140401213302
571.673 0.09954140401213296
571.975 0.12371140401213276
572.2760000000001 0.09454640401213288
572.577 0.06871140401213305
572.879 0.1012114040121328
573.1800000000001 0.11121140401213281
573.481 0.1162114040121327
573.7835 0.09787640401213271
574.0844999999999 0.10287640401213283
574.3855 0.11121140401213281
574.687 0.10288140401213286
574.988 0.10621140401213292
575.289 0.10371140401213297
575.59 0.09787640401213293
575.8905 0.09704140401213279
576.1925 0.08787640401213292
576.4935 0.07288140401213283
576.7945 0.09454640401213288
577.0955 0.11454140401213286
577.3975 0.08954640401213276
577.6985 0.0962114040121329
577.999 0.09371140401213274
578.3 0.0820464040121327
578.601 0.07954140401213272
578.9024999999999 0.0962114040121329
579.2035 0.0962114040121329
579.5045 0.08787640401213292
579.806 0.09787640401213271
580.106 0.11704640401213284
580.408 0.09454640401213288
580.7075 0.11204640401213295
581.009 0.0962114040121329
581.311 0.09287640401213282
581.611 0.11371140401213298
581.761 0.10371140401213297
582.061 0.08454640401213287
582.3620000000001 0.11787640401213295
582.663 0.09037640401213287
582.9635000000001 0.08204640401213292
583.264 0.1145464040121329
583.566 0.08871140401213307
583.8665000000001 0.08871140401213284
584.167 0.09537640401213299
584.4675 0.08454640401213287
584.7685 0.09121140401213279
585.069 0.08871140401213284
585.3695 0.09537640401213276
585.6715 0.10371140401213297
585.9704999999999 0.11454140401213286
586.2725 0.09704640401213283
586.572 0.10121140401213302
586.8734999999999 0.08371140401213295
587.1735 0.1012114040121328
587.4745 0.10204140401213291
587.7745 0.09121140401213279
588.0754999999999 0.09204640401213293
588.3755 0.09871140401213307
588.6765 0.09037640401213287
588.9765 0.10038140401213291
589.2775 0.11038140401213292
589.577 0.11538140401213282
589.8785 0.09037640401213287
590.1790000000001 0.09371140401213296
590.4795 0.09037640401213287
590.78 0.11204140401213292
591.0805 0.09788140401213297
591.3810000000001 0.10288140401213286
591.681 0.11871140401213287
591.982 0.10371140401213297
592.2819999999999 0.09871140401213307
592.582 0.10787640401213294
592.8820000000001 0.12121140401213282
593.183 0.12287640401213284
593.4825000000001 0.11204640401213295
593.784 0.09704640401213305
594.083 0.12121140401213304
594.3845 0.1303764040121329
594.684 0.11121140401213281
594.984 0.10704640401213283
595.2845 0.12121140401213282
595.5835 0.109546404012133
595.885 0.10871140401213286
596.184 0.12371140401213299
596.4855 0.1012114040121328
596.7845 0.11954640401213279
597.086 0.11787640401213295
597.385 0.13121140401213305
597.6855 0.09787640401213293
597.9855 0.13121140401213305
598.2855 0.11954640401213279
598.5854999999999 0.12038140401213293
598.885 0.09871140401213307
599.1855 0.11121140401213281
599.4855 0.13454640401213291
599.7855 0.12871140401213288
600.0854999999999 0.10371140401213297
600.3855 0.11787640401213295
600.6845000000001 0.12621140401213293
600.985 0.14038140401213295
601.2850000000001 0.12621140401213293
601.5840000000001 0.11371140401213298
601.8855 0.11787640401213295
602.1845000000001 0.13121140401213283
602.4855 0.12204640401213296
602.7845 0.1637114040121328
603.0835 0.14621140401213295
603.3845 0.133711404012133
603.5329999999999 0.1445414040121329
603.832 0.15121140401213284
604.133 0.13787640401213275
604.4315 0.13954640401213303
604.7305 0.14204140401213294
605.0315 0.143711404012133
605.3305 0.15871140401213268
605.6305 0.15954640401213283
605.9304999999999 0.15037640401213292
606.2294999999999 0.15537640401213304
606.5295 0.16538140401213286
606.8295 0.17538140401213287
607.1285 0.15954640401213283
607.4285 0.1728764040121329
607.7280000000001 0.1637114040121328
608.0275 0.17204640401213278
608.3265 0.1537114040121328
608.6265000000001 0.1603764040121327
608.9265 0.16121140401213285
609.2255 0.17038140401213298
609.525 0.18454140401213293
609.825 0.1770464040121329
610.1235 0.1728764040121329
610.4225 0.18537640401213284
610.723 0.15621140401213274
611.0219999999999 0.15287640401213287
611.3205 0.15954640401213305
611.6215 0.1770464040121329
611.9200000000001 0.14204640401213275
612.219 0.15204140401213273
612.519 0.1503764040121327
612.818 0.17204640401213278
613.117 0.15454640401213293
613.4169999999999 0.16121140401213285
613.715 0.1603764040121327
614.015 0.1537114040121328
614.315 0.16787640401213277
614.613 0.14371140401213278
614.912 0.14621140401213295
615.213 0.14621140401213295
615.511 0.16121140401213285
615.81 0.15287640401213287
616.1095 0.15038140401213296
616.409 0.16037640401213293
616.7075 0.13371140401213277
617.0060000000001 0.14621140401213295
617.306 0.15121140401213284
617.6055 0.125376404012133
617.904 0.14037640401213292
618.2035000000001 0.1145464040121329
618.502 0.1445414040121329
618.8005 0.12288140401213288
619.0999999999999 0.11704640401213284
619.3995 0.12121140401213304
619.698 0.1353764040121328
619.9965 0.12787640401213296
620.2945 0.1245464040121329
620.5955 0.10787640401213272
620.8934999999999 0.12871140401213288
621.1925 0.1203764040121329
621.4905 0.1245464040121329
621.7895 0.14537640401213303
622.0895 0.12287640401213284
622.3875 0.11871140401213287
622.6865 0.10288140401213286
622.9855 0.09871140401213285
623.2835 0.1145464040121329
623.5825 0.11954640401213279
623.8815 0.1262114040121327
624.1804999999999 0.10704140401213302
624.4794999999999 0.11121140401213281
624.7775 0.12371140401213299
625.0754999999999 0.11037640401213289
625.2235000000001 0.11454640401213267
625.5245 0.11621140401213292
625.8225 0.12954140401213277
626.1205 0.11954640401213279
626.4190000000001 0.11037640401213289
626.7175 0.11788140401213276
627.0165 0.08954140401213295
627.3145 0.115376404012133
627.614 0.10704640401213283
627.9124999999999 0.10454640401213289
628.2105 0.10204640401213294
628.5094999999999 0.12121140401213304
628.8075 0.0962114040121329
629.106 0.09288140401213285
629.404 0.08204640401213292
629.702 0.10287640401213283
630.0025 0.0903814040121329
630.3005 0.09537640401213276
630.5985000000001 0.11538140401213282
630.8965000000001 0.09121140401213279
631.1949999999999 0.10704140401213302
631.4929999999999 0.10037640401213288
631.7919999999999 0.10871140401213286
632.09 0.10925173398770283
632.3879999999999 0.10497655019844476
632.6859999999999 0.09659309773992253
632.984 0.08727597761174022
633.283 0.08837689808324134
633.582 0.10330491760046101
633.88 0.07954640401213275
634.178 0.08037640401213286
634.476 0.10037640401213288
634.774 0.09537640401213276
635.072 0.08704640401213304
635.37 0.10954640401213278
635.669 0.10621140401213292
635.9670000000001 0.09287640401213282
636.265 0.10704640401213306
636.563 0.12121140401213282
636.861 0.10037640401213288
637.159 0.10787640401213294
637.4570000000001 0.08871140401213284
637.7545 0.11204640401213295
638.0519999999999 0.10204640401213294
638.351 0.09454640401213288
638.649 0.09954140401213296
638.947 0.08454640401213287
639.245 0.12371140401213276
639.5425 0.12871140401213288
639.8415 0.09787640401213271
640.139 0.105376404012133
640.437 0.10787640401213294
640.735 0.11954140401213276
641.0325 0.11121140401213281
641.3315 0.10954640401213278
641.6289999999999 0.11954140401213298
641.927 0.12287640401213307
642.2245 0.12371140401213276
642.5225 0.10621140401213292
642.8199999999999 0.11037640401213289
643.1175000000001 0.11121140401213281
643.4145000000001 0.13121140401213283
643.712 0.12038140401213271
644.0095 0.14287640401213286
644.3075 0.12704640401213285
644.605 0.13371140401213277
644.9024999999999 0.11871140401213287
645.2005 0.13454640401213291
645.498 0.11621140401213292
645.7965 0.13288140401213266
646.0944999999999 0.1245464040121329
646.242 0.11537640401213278
646.5395 0.14121140401213284
646.8375000000001 0.14704640401213287
647.1345 0.14954140401213278
647.4325 0.1262114040121327
647.73 0.14621140401213273
648.0275 0.13538140401213283
648.325 0.14371140401213278
648.6225 0.14037640401213292
648.9200000000001 0.1628814040121327
649.2175 0.1587114040121329
649.514 0.172046404012133
649.8115 0.18621140401213299
650.1089999999999 0.1637114040121328
650.4065 0.17037640401213294
650.704 0.1637114040121328
651.0015000000001 0.19454140401213293
651.299 0.177876404012133
651.596 0.14287640401213286
651.8934999999999 0.18704140401213287
652.191 0.17454140401213292
652.4884999999999 0.19371140401213283
652.785 0.17788140401213282
653.082 0.20037640401213297
653.3795 0.20037640401213297
653.6769999999999 0.2053814040121329
653.9739999999999 0.18038140401213298
654.2715000000001 0.19537640401213285
654.569 0.2112114040121329
654.866 0.19621140401213277
655.1624999999999 0.18454640401213296
655.46 0.17204640401213278
655.7570000000001 0.21204140401213278
656.054 0.20788140401213306
656.3520000000001 0.20621140401213278
656.6479999999999 0.17954640401213284
656.945 0.20371140401213284
657.241 0.18871140401213293
657.539 0.19287640401213269
657.836 0.18621140401213276
658.133 0.19371140401213283
658.4300000000001 0.17204640401213278
658.7275 0.17788140401213282
659.025 0.15537640401213282
659.321 0.17204140401213297
659.6179999999999 0.14371140401213278
659.915 0.1628814040121329
660.212 0.17704140401213286
660.5094999999999 0.15037640401213292
660.8054999999999 0.1728764040121329
661.102 0.19038140401213277
661.399 0.15454140401213268
661.696 0.14954640401213282
661.9929999999999 0.14371140401213278
662.29 0.1537114040121328
662.586 0.162046404012133
662.883 0.16537640401213305
663.1800000000001 0.1445414040121329
663.477 0.15621140401213274
663.7729999999999 0.13121140401213283
664.069 0.14204640401213275
664.366 0.125376404012133
664.6635 0.14704640401213287
664.9605 0.12287640401213284
665.2560000000001 0.1528814040121329
665.553 0.14287640401213286
665.8499999999999 0.13204640401213275
666.1469999999999 0.13454140401213266
666.443 0.1145464040121329
666.739 0.12871140401213288
667.0360000000001 0.14037640401213292
667.3330000000001 0.11954640401213279
667.4795 0.12371140401213276
667.7760000000001 0.10954640401213278
668.073 0.11371140401213298
668.37 0.10621140401213292
668.6659999999999 0.1203764040121329
668.962 0.07704140401213277
669.2584999999999 0.10038140401213291
669.5554999999999 0.0962114040121329
669.851 0.10704640401213283
670.148 0.0903814040121329
670.4449999999999 0.09121140401213279
670.741 0.10037640401213288
671.0364999999999 0.10204640401213294
671.3330000000001 0.08287640401213303
671.63 0.09621140401213268
671.9259999999999 0.08371140401213295
672.2225 0.081211404012133
672.518 0.10537640401213277
672.815 0.09871140401213285
673.111 0.08787640401213292
673.4075 0.08121140401213278
673.704 0.08287640401213281
673.999 0.071211404012133
674.2955 0.08871140401213284
674.5920000000001 0.0862114040121329
674.888 0.07787640401213292
675.1845000000001 0.08037640401213286
675.48 0.07704640401213281
675.7760000000001 0.09204640401213271
676.072 0.06871140401213283
676.369 0.06954640401213275
676.665 0.07537640401213297
676.96 0.077041404012133
677.2570000000001 0.07371140401213294
677.552 0.07787640401213292
677.8489999999999 0.07371140401213294
678.1445 0.07871140401213284
678.44 0.09287640401213282
678.7370000000001 0.07204140401213288
679.033 0.071211404012133
679.328 0.075381404012133
679.624 0.06787640401213269
679.921 0.08871140401213284
680.216 0.07954140401213294
680.512 0.07204640401213291
680.807 0.077041404012133
681.1034999999999 0.09204640401213293
681.4000000000001 0.08287640401213303
681.694 0.06954140401213293
681.991 0.05454640401213284
682.2860000000001 0.05621140401213287
682.5830000000001 0.05621140401213287
682.8779999999999 0.06621140401213288
683.1735000000001 0.06038140401213288
683.47 0.10037640401213288
683.764 0.08537640401213276
684.0609999999999 0.042041404012132855
684.357 0.0670464040121328
684.652 0.08454640401213287
684.948 0.061211404012132764
685.2429999999999 0.05287640401213278
685.539 0.04871140401213281
685.835 0.05954640401213296
686.13 0.052046404012132896
686.426 0.06537640401213296
686.7215 0.05788140401213293
687.017 0.05621140401213287
687.3119999999999 0.06287640401213279
687.608 0.04871140401213303
687.9035 0.06787640401213291
688.05 0.06287640401213279
687.977 0.07332999999999991
688.275 0.07167000000000014
688.573 0.06000000000000007
688.869 0.04666999999999978
689.167 0.06000000000000007
689.466 0.07167000000000014
689.762 0.04166999999999989
690.06 0.035000000000000156
690.358 0.06499999999999996
690.654 0.07499999999999975
690.952 0.05332999999999989
691.25 0.018329999999999735
691.547 0.04166999999999989
691.845 0.08000000000000008
692.143 0.026669999999999763
692.439 0.06000000000000007
692.737 0.043330000000000105
693.033 0.033329999999999874
693.331 0.035000000000000156
693.629 0.049999999999999836
693.925 0.05167000000000012
694.223 0.06999999999999985
694.521 0.05167000000000012
694.817 0.06999999999999985
695.115 0.06000000000000007
695.413 0.04833
695.709 0.0316700000000001
696.007 0.06333000000000012
696.303 0.04666999999999978
696.601 0.05667000000000001
696.899 0.061669999999999905
697.195 0.0666699999999998
697.493 0.04000000000000005
697.789 0.035000000000000156
698.087 0.06000000000000007
698.385 0.049999999999999836
698.681 0.05667000000000001
698.978 0.049999999999999836
699.274 0.061669999999999905
699.572 0.049999999999999836
699.868 0.02999999999999982
700.166 0.043330000000000105
700.464 0.023330000000000087
700.759 0.08833000000000003
701.057 0.0316700000000001
701.353 0.058329999999999785
701.651 0.061669999999999905
701.947 0.08333000000000014
702.244 0.04666999999999978
702.542 0.058329999999999785
702.838 0.03832999999999977
703.136 0.055000000000000174
703.431 0.04166999999999989
703.729 0.04499999999999994
704.025 0.026669999999999763
704.323 0.05167000000000012
704.618 0.04499999999999994
704.916 0.024999999999999925
705.212 0.05167000000000012
705.509 0.035000000000000156
705.805 0.055000000000000174
706.103 0.061669999999999905
706.4 0.04499999999999994
706.696 0.058329999999999785
706.993 0.035000000000000156
707.289 0.05332999999999989
707.587 0.05667000000000001
707.882 0.02832999999999998
708.18 0.055000000000000174
708.475 0.04166999999999989
708.773 0.04166999999999989
709.068 0.05332999999999989
709.366 0.07167000000000014
709.661 0.049999999999999836
709.959 0.03832999999999977
710.255 0.026669999999999763
710.552 0.05667000000000001
710.847 0.04499999999999994
711.145 0.024999999999999925
711.44 0.0316700000000001
711.736 0.061669999999999905
712.033 0.043330000000000105
712.329 0.04666999999999978
712.626 0.05167000000000012
712.922 0.055000000000000174
713.219 0.06333000000000012
713.514 0.061669999999999905
713.812 0.04000000000000005
714.107 0.08000000000000008
714.405 0.033329999999999874
714.7 0.043330000000000105
714.997 0.06333000000000012
715.293 0.04499999999999994
715.588 0.08833000000000003
715.885 0.043330000000000105
716.181 0.036669999999999994
716.478 0.04000000000000005
716.773 0.033329999999999874
717.07 0.04833
717.366 0.05332999999999989
717.661 0.07167000000000014
717.958 0.04833
718.254 0.06999999999999985
718.551 0.05667000000000001
718.846 0.05167000000000012
719.141 0.036669999999999994
719.438 0.02832999999999998
719.734 0.02999999999999982
720.031 0.04499999999999994
720.326 0.02999999999999982
720.621 0.049999999999999836
720.918 0.043330000000000105
721.213 0.035000000000000156
721.511 0.06333000000000012
721.806 0.023330000000000087
722.101 0.04666999999999978
722.398 0.06499999999999996
722.693 0.05314848274195373
722.99 0.052902403810564116
723.285 0.05294775341140802
723.58 0.05362453703692839
723.877 0.052795686572105996
724.172 0.05667000000000001
724.467 0.06000000000000007
724.764 0.04833
725.06 0.08333000000000014
725.354 0.04833
725.651 0.01167000000000007
725.946 0.026669999999999763
726.243 0.026669999999999763
726.538 0.035000000000000156
726.833 0.026669999999999763
727.13 0.061669999999999905
727.425 0.043330000000000105
727.72 0.036669999999999994
728.017 0.036669999999999994
728.312 0.05167000000000012
728.607 0.055000000000000174
728.904 0.04000000000000005
729.199 0.026669999999999763
729.494 0.04000000000000005
729.789 0.035000000000000156
730.085 0.020000000000000018
730.38 0.058329999999999785
730.675 0.04000000000000005
730.972 0.024999999999999925
731.267 0.055000000000000174
731.562 0.06333000000000012
731.858 0.0316700000000001
732.153 0.04666999999999978
732.448 0.04666999999999978
732.743 0.04499999999999994
733.039 0.026669999999999763
733.334 0.043330000000000105
733.629 0.043330000000000105
733.926 0.04000000000000005
734.22 0.04666999999999978
734.515 0.033329999999999874
734.81 0.04499999999999994
735.107 0.026669999999999763
735.401 0.04666999999999978
735.696 0.04166999999999989
735.991 0.04166999999999989
736.287 0.03832999999999977
736.582 0.06000000000000007
736.876 0.036669999999999994
737.171 0.04833
737.468 0.02999999999999982
737.762 0.04833
738.057 0.033329999999999874
738.352 0.033329999999999874
738.648 0.049999999999999836
738.943 0.033329999999999874
739.237 0.061669999999999905
739.532 0.061669999999999905
739.828 0.02832999999999998
740.123 0.016669999999999963
740.417 0.033329999999999874
740.712 0.03832999999999977
741.006 0.024999999999999925
741.303 0.02999999999999982
741.597 0.04666999999999978
741.892 0.0316700000000001
742.186 0.04000000000000005
742.483 0.03832999999999977
742.777 0.043330000000000105
743.072 0.021669999999999856
743.366 0.04166999999999989
743.66 0.018329999999999735
743.955 0.05667000000000001
744.251 0.033329999999999874
744.546 0.06000000000000007
744.84 0.004999999999999893
745.134 0.023330000000000087
745.429 0.04666999999999978
745.725 0.04499999999999994
746.019 0.02999999999999982
746.314 0.035000000000000156
746.608 0.0316700000000001
746.902 0.04833
747.197 0.043330000000000105
747.493 0.026669999999999763
747.787 0.02999999999999982
748.082 0.020000000000000018
748.376 0.036669999999999994
748.67 0.01167000000000007
748.964 0.04000000000000005
749.259 0.043330000000000105
749.555 0.05667000000000001
749.849 0.020000000000000018
750.143 0.0
750.437 0.04833
750.732 0.04666999999999978
751.026 0.023330000000000087
751.32 0.04166999999999989
751.614 0.0316700000000001
751.91 0.036669999999999994
752.204 0.024999999999999925
752.498 0.02832999999999998
752.793 0.06000000000000007
753.087 0.02832999999999998
753.381 0.016669999999999963
753.675 0.026669999999999763
753.969 0.035000000000000156
754.263 0.024999999999999925
754.559 0.04499999999999994
754.853 0.01167000000000007
755.147 0.05667000000000001
755.441 0.03832999999999977
755.735 0.04666999999999978
756.029 0.055000000000000174
756.323 0.04166999999999989
756.617 0.03832999999999977
756.911 0.02832999999999998
757.205 0.049999999999999836
757.499 0.04166999999999989
757.793 0.023330000000000087
758.087 0.021669999999999856
758.381 0.024999999999999925
758.677 0.033329999999999874
758.971 0.043330000000000105
759.265 0.05167000000000012
759.559 0.026669999999999763
759.853 0.04833
760.146 0.035000000000000156
760.44 0.035000000000000156
760.734 0.04499999999999994
761.028 0.023330000000000087
761.322 0.04000000000000005
761.616 0.058329999999999785
761.909 0.04499999999999994
762.203 0.02832999999999998
762.497 0.049999999999999836
762.791 0.05332999999999989
763.085 0.04666999999999978
763.378 0.05332999999999989
763.672 0.04499999999999994
763.966 0.020000000000000018
764.26 0.043330000000000105
764.553 0.061669999999999905
764.847 0.03832999999999977
765.141 0.02999999999999982
765.435 0.033329999999999874
765.728 0.043330000000000105
766.022 0.02832999999999998
766.316 0.008329999999999949
766.609 0.02999999999999982
766.903 0.020000000000000018
767.197 0.04833
767.49 0.02999999999999982
767.784 0.02832999999999998
768.078 0.015000000000000124
768.371 0.021669999999999856
768.665 0.02999999999999982
768.958 0.006669999999999732
769.252 0.015000000000000124
769.546 0.04499999999999994
769.839 0.043330000000000105
770.133 0.026669999999999763
770.426 0.021669999999999856
770.72 0.04000000000000005
771.013 0.02999999999999982
771.305 0.023330000000000087
771.598 0.02999999999999982
771.892 0.021669999999999856
772.185 0.06999999999999985
772.479 0.05667000000000001
772.772 0.026669999999999763
773.066 0.03832999999999977
773.359 0.018329999999999735
773.653 0.023330000000000087
773.946 0.04499999999999994
774.239 0.03832999999999977
774.533 0.03832999999999977
774.826 0.0666699999999998
775.12 0.0316700000000001
775.411 0.033329999999999874
775.704 0.023330000000000087
775.998 0.02999999999999982
776.291 0.026669999999999763
776.584 0.02999999999999982
776.878 0.04499999999999994
777.171 0.055000000000000174
777.464 0.04166999999999989
777.758 0.04000000000000005
778.049 0.04833
778.342 0.04833
778.636 0.04166999999999989
778.929 0.0316700000000001
779.222 0.04499999999999994
779.515 0.026669999999999763
779.809 0.04166999999999989
780.102 0.058329999999999785
780.393 0.026669999999999763
780.686 0.049999999999999836
780.979 0.0016699999999998383
781.273 0.04499999999999994
781.566 0.043330000000000105
781.859 0.016669999999999963
782.152 0.02832999999999998
782.443 0.043330000000000105
782.737 0.02832999999999998
783.03 0.02999999999999982
783.323 0.018329999999999735
783.616 0.023330000000000087
783.909 0.055000000000000174
784.2 0.04000000000000005
784.493 0.049999999999999836
784.786 0.0316700000000001
785.079 0.055000000000000174
785.372 0.058329999999999785
785.664 0.020000000000000018
785.957 0.0016699999999998383
786.25 0.03832999999999977
786.543 0.035000000000000156
786.836 0.05667000000000001
787.127 0.036669999999999994
787.42 0.05667000000000001
787.713 0.02999999999999982
788.006 0.016669999999999963
788.299 0.0316700000000001
788.59 0.05332999999999989
788.882 0.033329999999999874
789.175 0.03832999999999977
789.468 0.04499999999999994
789.761 0.04666999999999978
790.052 0.04000000000000005
790.345 0.01167000000000007
790.638 0.06333000000000012
790.931 0.04000000000000005
791.222 0.018329999999999735
791.515 0.04166999999999989
791.807 0.04000000000000005
792.1 0.026669999999999763
792.391 0.04000000000000005
792.684 0.04166999999999989
792.977 0.02999999999999982
793.27 0.024999999999999925
793.56 0.06499999999999996
793.853 0.0016699999999998383
794.146 0.04499999999999994
794.439 0.036669999999999994
794.729 0.023330000000000087
795.022 0.016669999999999963
795.315 0.04000000000000005
795.606 0.020000000000000018
795.898 0.033329999999999874
796.191 0.026669999999999763
796.484 0.013329999999999842
796.775 0.04666999999999978
797.067 0.05167000000000012
797.36 0.043330000000000105
797.651 0.03832999999999977
797.943 0.033329999999999874
798.236 0.018329999999999735
798.528 0.05667000000000001
798.819 0.049999999999999836
799.112 0.04166999999999989
799.404 0.036669999999999994
799.695 0.033329999999999874
799.987 0.04666999999999978
800.28 0.04833
800.571 0.018329999999999735
800.863 0.049999999999999836
801.156 0.024999999999999925
801.446 0.04000000000000005
801.739 0.013329999999999842
802.031 0.0666699999999998
802.322 0.0316700000000001
802.614 0.023330000000000087
802.907 0.043330000000000105
803.197 0.033329999999999874
803.49 0.033329999999999874
803.782 0.02999999999999982
804.073 0.02999999999999982
804.365 0.026669999999999763
804.658 0.0316700000000001
804.948 0.04666999999999978
805.241 0.036669999999999994
805.531 0.04166999999999989
805.823 0.03832999999999977
806.116 0.05667000000000001
806.406 0.04666999999999978
806.698 0.0316700000000001
806.991 0.021669999999999856
807.281 0.04166999999999989
807.574 0.035000000000000156
807.864 0.035000000000000156
808.156 0.036669999999999994
808.449 0.04666999999999978
808.739 0.035000000000000156
809.031 0.021669999999999856
809.321 0.043330000000000105
809.614 0.04000000000000005
809.906 0.02832999999999998
810.196 0.02832999999999998
810.489 0.020000000000000018
810.779 0.02832999999999998
811.071 0.02832999999999998
811.363 0.058329999999999785
811.653 0.04499999999999994
811.946 0.0316700000000001
812.236 0.024999999999999925
812.528 0.05332999999999989
812.818 0.036669999999999994
813.11 0.023330000000000087
813.401 0.04000000000000005
813.693 0.03832999999999977
813.985 0.033329999999999874
814.275 0.04166999999999989
814.567 0.024999999999999925
814.857 0.023330000000000087
815.149 0.03832999999999977
815.439 0.026669999999999763
815.731 0.016669999999999963
816.022 0.033329999999999874
816.314 0.018329999999999735
816.604 0.016669999999999963
816.896 0.043330000000000105
817.188 0.05167000000000012
817.478 0.024999999999999925
817.77 0.036669999999999994
818.06 0.04499999999999994
818.352 0.0316700000000001
818.642 0.02999999999999982
818.934 0.033329999999999874
819.224 0.04000000000000005
819.516 0.036669999999999994
819.806 0.04499999999999994
820.098 0.036669999999999994
820.388 0.07499999999999975
820.679 0.0316700000000001
820.969 0.03832999999999977
821.261 0.04166999999999989
821.551 0.033329999999999874
821.843 0.023330000000000087
822.133 0.021669999999999856
822.423 0.033329999999999874
822.715 0.02832999999999998
823.005 0.036669999999999994
823.296 0.04833
823.586 0.04166999999999989
823.878 0.021669999999999856
824.168 0.061669999999999905
824.46 0.05167000000000012
824.749 0.023330000000000087
825.041 0.02832999999999998
825.331 0.0316700000000001
825.623 0.05167000000000012
825.912 0.0316700000000001
826.202 0.061669999999999905
826.494 0.024999999999999925
826.784 0.03832999999999977
827.075 0.06999999999999985
827.365 0.0316700000000001
827.657 0.04499999999999994
827.947 0.04499999999999994
828.236 0.043330000000000105
828.528 0.04833
828.818 0.04666999999999978
829.109 0.04666999999999978
829.399 0.021669999999999856
829.69 0.04166999999999989
829.98 0.05667000000000001
830.27 0.026669999999999763
830.561 0.02832999999999998
830.851 0.021669999999999856
831.143 0.04833
831.432 0.05167000000000012
831.722 0.023330000000000087
832.013 0.05167000000000012
832.303 0.018329999999999735
832.592 0.06000000000000007
832.884 0.023330000000000087
833.173 0.03832999999999977
833.465 0.035000000000000156
833.754 0.04166999999999989
834.044 0.058329999999999785
834.335 0.049999999999999836
834.625 0.0316700000000001
834.914 0.036669999999999994
835.206 0.0316700000000001
835.495 0.018329999999999735
835.785 0.05167000000000012
836.076 0.049999999999999836
836.366 0.06499999999999996
836.657 0.061669999999999905
836.946 0.06000000000000007
837.236 0.04000000000000005
837.527 0.0316700000000001
837.817 0.0316700000000001
838.106 0.04000000000000005
838.397 0.04666999999999978
838.687 0.035000000000000156
838.976 0.043330000000000105
839.265 0.036669999999999994
839.557 0.023330000000000087
839.846 0.035000000000000156
840.135 0.0316700000000001
840.426 0.04499999999999994
840.716 0.035000000000000156
841.005 0.04833
841.296 0.03832999999999977
841.586 0.055000000000000174
841.875 0.02832999999999998
842.166 0.0316700000000001
842.455 0.04499999999999994
842.744 0.05167000000000012
843.034 0.0316700000000001
843.325 0.035000000000000156
843.614 0.033329999999999874
843.903 0.02999999999999982
844.194 0.036669999999999994
844.484 0.043330000000000105
844.773 0.04166999999999989
845.062 0.061669999999999905
845.353 0.04166999999999989
845.642 0.06000000000000007
845.931 0.021669999999999856
846.22 0.05167000000000012
846.511 0.03832999999999977
846.801 0.043330000000000105
847.09 0.015000000000000124
847.379 0.055000000000000174
847.67 0.05332999999999989
847.959 0.04666999999999978
848.248 0.05167000000000012
848.537 0.049999999999999836
848.828 0.026669999999999763
849.117 0.05167000000000012
849.406 0.024999999999999925
849.695 0.04166999999999989
849.984 0.04000000000000005
850.275 0.05667000000000001
850.564 0.024999999999999925
850.853 0.06499999999999996
851.142 0.03832999999999977
851.431 0.043330000000000105
851.722 0.05167000000000012
852.011 0.061669999999999905
852.299 0.049999999999999836
852.588 0.023330000000000087
852.877 0.04499999999999994
853.168 0.02999999999999982
853.457 0.04833
853.746 0.04666999999999978
854.035 0.058329999999999785
854.324 0.058329999999999785
854.614 0.0316700000000001
854.903 0.02999999999999982
855.192 0.04000000000000005
855.481 0.035000000000000156
855.77 0.05667000000000001
856.058 0.033329999999999874
856.349 0.024999999999999925
856.638 0.04833
856.927 0.07499999999999975
857.216 0.04499999999999994
857.504 0.013329999999999842
857.793 0.049999999999999836
858.082 0.04000000000000005
858.372 0.035000000000000156
858.661 0.020000000000000018
858.95 0.04833
859.239 0.049999999999999836
859.527 0.05667000000000001
859.816 0.04000000000000005
860.105 0.04499999999999994
860.395 0.02832999999999998
860.684 0.03832999999999977
860.973 0.018329999999999735
861.261 0.05167000000000012
861.55 0.04666999999999978
861.838 0.02999999999999982
862.127 0.04833
862.416 0.08000000000000008
862.704 0.04499999999999994
862.993 0.055000000000000174
863.283 0.04833
863.572 0.04499999999999994
863.86 0.04833
864.149 0.05167000000000012
864.437 0.04000000000000005
864.726 0.04499999999999994
865.014 0.0316700000000001
865.303 0.04666999999999978
865.591 0.05332999999999989
865.88 0.02832999999999998
866.168 0.015000000000000124
866.457 0.018329999999999735
866.747 0.04000000000000005
867.036 0.04000000000000005
867.324 0.0316700000000001
867.613 0.04666999999999978
867.901 0.055000000000000174
868.189 0.08333000000000014
868.478 0.049999999999999836
868.766 0.043330000000000105
869.055 0.035000000000000156
869.343 0.06999999999999985
869.631 0.0783299999999998
869.92 0.049999999999999836
870.208 0.05667000000000001
870.496 0.03832999999999977
870.785 0.043330000000000105
871.073 0.043330000000000105
871.361 0.049999999999999836
871.65 0.058329999999999785
871.938 0.035000000000000156
872.226 0.02832999999999998
872.514 0.04833
872.803 0.05667000000000001
873.091 0.03832999999999977
873.379 0.05167000000000012
873.667 0.055000000000000174
873.956 0.0316700000000001
874.244 0.06499999999999996
874.532 0.04666999999999978
874.82 0.05167000000000012
875.108 0.06333000000000012
875.397 0.02832999999999998
875.685 0.009999999999999787
875.973 0.04000000000000005
876.261 0.07667000000000003
876.549 0.04166999999999989
876.837 0.049999999999999836
877.125 0.06833000000000002
877.414 0.02832999999999998
877.702 0.043330000000000105
877.99 0.04666999999999978
878.278 0.049999999999999836
878.566 0.04166999999999989
878.854 0.049999999999999836
879.142 0.06000000000000007
879.43 0.018329999999999735
879.718 0.06000000000000007
880.004 0.07167000000000014
880.292 0.0783299999999998
880.58 0.06000000000000007
880.868 0.036669999999999994
881.156 0.06499999999999996
881.444 0.07167000000000014
881.732 0.04833
882.02 0.03832999999999977
882.308 0.04666999999999978
882.596 0.05167000000000012
882.884 0.055000000000000174
883.172 0.061669999999999905
883.458 0.06499999999999996
883.746 0.06833000000000002
884.034 0.061669999999999905
884.322 0.023330000000000087
884.609 0.04499999999999994
884.897 0.055000000000000174
885.185 0.04666999999999978
885.473 0.049999999999999836
885.761 0.04666999999999978
886.049 0.01167000000000007
886.335 0.061669999999999905
886.622 0.033329999999999874
886.91 0.035000000000000156
887.198 0.055000000000000174
887.486 0.058329999999999785
887.774 0.06000000000000007
888.061 0.05667000000000001
888.347 0.0316700000000001
888.635 0.04000000000000005
888.923 0.049999999999999836
889.21 0.058329999999999785
889.498 0.05667000000000001
889.786 0.04666999999999978
890.073 0.04666999999999978
890.359 0.04499999999999994
890.647 0.023330000000000087
890.935 0.06833000000000002
891.222 0.04499999999999994
891.51 0.055000000000000174
891.798 0.0666699999999998
892.083 0.049999999999999836
892.371 0.04833
892.659 0.03832999999999977
892.946 0.055000000000000174
893.234 0.05332999999999989
893.519 0.07167000000000014
893.807 0.04499999999999994
894.094 0.0783299999999998
894.382 0.0666699999999998
894.67 0.02999999999999982
894.955 0.061669999999999905
895.243 0.036669999999999994
895.53 0.04666999999999978
895.818 0.0666699999999998
896.105 0.06000000000000007
896.391 0.061669999999999905
896.678 0.061669999999999905
896.966 0.033329999999999874
897.253 0.049999999999999836
897.539 0.08000000000000008
897.826 0.04833
898.114 0.05167000000000012
898.401 0.058329999999999785
898.689 0.043330000000000105
898.974 0.04499999999999994
899.261 0.04166999999999989
899.549 0.004999999999999893
899.836 0.013329999999999842
900.122 0.016669999999999963
900.409 0.05167000000000012
900.696 0.05167000000000012
900.982 0.04499999999999994
901.269 0.03832999999999977
901.556 0.023330000000000087
901.844 0.05332999999999989
902.129 0.02999999999999982
902.417 0.049999999999999836
902.704 0.058329999999999785
902.991 0.04833
903.276 0.055000000000000174
903.564 0.06333000000000012
903.851 0.04666999999999978
904.136 0.043330000000000105
904.423 0.06499999999999996
904.711 0.06999999999999985
904.998 0.05332999999999989
905.283 0.04166999999999989
905.57 0.02832999999999998
905.858 0.04499999999999994
906.143 0.036669999999999994
906.43 0.04833
906.717 0.04166999999999989
907.002 0.07332999999999991
907.29 0.06000000000000007
907.577 0.061669999999999905
907.862 0.04833
908.149 0.0783299999999998
908.436 0.043330000000000105
908.721 0.06000000000000007
909.008 0.035000000000000156
909.295 0.06333000000000012
909.581 0.05667000000000001
909.868 0.058329999999999785
910.155 0.04833
910.44 0.06000000000000007
910.727 0.04666999999999978
911.014 0.06999999999999985
911.299 0.04000000000000005
911.586 0.033329999999999874
911.871 0.06000000000000007
912.158 0.04833
912.445 0.05167000000000012
912.73 0.05667000000000001
913.017 0.043330000000000105
913.304 0.06000000000000007
913.589 0.0666699999999998
913.876 0.07667000000000003
914.161 0.058329999999999785
914.448 0.036669999999999994
914.735 0.04166999999999989
915.02 0.061669999999999905
915.307 0.06999999999999985
915.591 0.06999999999999985
915.878 0.06000000000000007
916.165 0.020000000000000018
916.45 0.06833000000000002
916.737 0.06000000000000007
917.022 0.0783299999999998
917.309 0.04833
917.595 0.05667000000000001
917.88 0.061669999999999905
918.167 0.09332999999999993
918.452 0.049999999999999836
918.739 0.05667000000000001
919.024 0.05332999999999989
919.31 0.07499999999999975
919.597 0.02999999999999982
919.882 0.04666999999999978
920.169 0.03832999999999977
920.453 0.07667000000000003
920.74 0.06999999999999985
921.025 0.04499999999999994
921.312 0.1000000000000001
921.596 0.055000000000000174
921.883 0.11499999999999978
922.168 0.05667000000000001
922.454 0.058329999999999785
922.741 0.06499999999999996
923.026 0.06833000000000002
923.312 0.05167000000000012
923.597 0.08166999999999992
923.884 0.058329999999999785
924.168 0.06000000000000007
924.455 0.05167000000000012
924.74 0.08166999999999992
925.026 0.061669999999999905
925.311 0.06333000000000012
925.597 0.03832999999999977
925.882 0.05167000000000012
926.169 0.055000000000000174
926.453 0.08000000000000008
926.74 0.055000000000000174
927.024 0.0783299999999998
927.311 0.061669999999999905
927.595 0.055000000000000174
927.882 0.08166999999999992
928.166 0.0783299999999998
928.453 0.049999999999999836
928.737 0.1000000000000001
929.022 0.08166999999999992
929.308 0.0666699999999998
929.593 0.0666699999999998
929.879 0.08333000000000014
930.164 0.06499999999999996
930.45 0.09667000000000005
930.734 0.05332999999999989
931.021 0.06499999999999996
931.305 0.04166999999999989
931.592 0.05167000000000012
931.876 0.07167000000000014
932.16 0.02832999999999998
932.447 0.08000000000000008
932.731 0.04666999999999978
933.018 0.08000000000000008
933.302 0.049999999999999836
933.588 0.0666699999999998
933.873 0.06000000000000007
934.157 0.07167000000000014
934.443 0.07167000000000014
934.727 0.04499999999999994
935.014 0.06000000000000007
935.298 0.08333000000000014
935.582 0.02999999999999982
935.869 0.09167000000000015
936.153 0.08333000000000014
936.439 0.08499999999999998
936.723 0.07499999999999975
937.008 0.06833000000000002
937.294 0.08999999999999987
937.578 0.07167000000000014
937.864 0.08166999999999992
938.148 0.061669999999999905
938.433 0.06499999999999996
938.719 0.08000000000000008
939.003 0.08333000000000014
939.287 0.05667000000000001
939.573 0.0666699999999998
939.857 0.08999999999999987
940.143 0.06499999999999996
940.428 0.07167000000000014
940.712 0.06499999999999996
940.998 0.0783299999999998
941.282 0.07167000000000014
941.566 0.08166999999999992
941.852 0.09167000000000015
942.136 0.07667000000000003
942.42 0.10166999999999994
942.706 0.04833
942.99 0.06333000000000012
943.274 0.09332999999999993
943.56 0.07499999999999975
943.844 0.07499999999999975
944.128 0.08000000000000008
944.414 0.07667000000000003
944.698 0.0666699999999998
944.982 0.08000000000000008
945.268 0.05167000000000012
945.552 0.049999999999999836
945.836 0.061669999999999905
946.12 0.1000000000000001
946.406 0.0783299999999998
946.69 0.058329999999999785
946.974 0.10166999999999994
947.26 0.0783299999999998
947.544 0.07332999999999991
947.828 0.07332999999999991
948.114 0.07667000000000003
948.397 0.08000000000000008
948.681 0.09167000000000015
948.965 0.07167000000000014
949.251 0.07667000000000003
949.535 0.07499999999999975
949.819 0.06499999999999996
950.103 0.09332999999999993
950.388 0.06499999999999996
950.672 0.08333000000000014
950.956 0.09332999999999993
951.24 0.09167000000000015
951.525 0.09332999999999993
951.809 0.0783299999999998
952.093 0.06833000000000002
952.377 0.0666699999999998
952.662 0.09332999999999993
952.946 0.09332999999999993
953.23 0.10166999999999994
953.514 0.1000000000000001
953.799 0.06499999999999996
954.083 0.0783299999999998
954.367 0.07167000000000014
954.65 0.09499999999999977
954.934 0.10666999999999983
955.22 0.09832999999999982
955.503 0.05332999999999989
955.787 0.08333000000000014
956.071 0.08999999999999987
956.356 0.08666999999999982
956.64 0.1000000000000001
956.924 0.08166999999999992
957.207 0.08666999999999982
957.491 0.08833000000000003
957.774 0.08999999999999987
958.06 0.06499999999999996
958.343 0.06833000000000002
958.627 0.11499999999999978
958.911 0.08333000000000014
959.194 0.07332999999999991
959.48 0.07667000000000003
959.763 0.09499999999999977
960.047 0.09667000000000005
960.33 0.08499999999999998
960.614 0.105
960.897 0.10333000000000016
961.182 0.09832999999999982
961.466 0.0666699999999998
961.749 0.10333000000000016
962.033 0.09832999999999982
962.316 0.09499999999999977
962.6 0.08833000000000003
962.883 0.058329999999999785
963.169 0.0666699999999998
963.452 0.07332999999999991
963.735 0.07332999999999991
964.019 0.08999999999999987
964.302 0.05332999999999989
964.586 0.07499999999999975
964.869 0.09167000000000015
965.152 0.09832999999999982
965.438 0.06499999999999996
965.721 0.08499999999999998
966.004 0.08999999999999987
966.288 0.09832999999999982
966.571 0.0666699999999998
966.854 0.1000000000000001
967.137 0.061669999999999905
967.421 0.08999999999999987
967.704 0.10333000000000016
967.987 0.07332999999999991
968.272 0.11167000000000017
968.556 0.0783299999999998
968.839 0.09667000000000005
969.122 0.08166999999999992
969.405 0.08999999999999987
969.689 0.07167000000000014
969.972 0.09167000000000015
970.255 0.09332999999999993
970.538 0.08000000000000008
970.821 0.09832999999999982
971.105 0.10166999999999994
971.388 0.08000000000000008
971.671 0.07332999999999991
971.954 0.06999999999999985
972.237 0.08833000000000003
972.52 0.06000000000000007
972.805 0.10666999999999983
973.088 0.08000000000000008
973.371 0.05167000000000012
973.655 0.08666999999999982
973.938 0.10999999999999989
974.221 0.11167000000000017
974.504 0.04499999999999994
974.787 0.07167000000000014
975.07 0.08166999999999992
975.353 0.07167000000000014
975.636 0.058329999999999785
975.919 0.10666999999999983
976.202 0.04499999999999994
976.485 0.08333000000000014
976.768 0.0783299999999998
977.051 0.08499999999999998
977.334 0.08000000000000008
977.617 0.061669999999999905
977.9 0.08000000000000008
978.183 0.0783299999999998
978.466 0.08333000000000014
978.749 0.09332999999999993
979.031 0.08499999999999998
979.314 0.09332999999999993
979.597 0.09832999999999982
979.88 0.09167000000000015
980.163 0.1000000000000001
980.446 0.04833
980.729 0.0783299999999998
981.01 0.07167000000000014
981.293 0.0783299999999998
981.575 0.08166999999999992
981.858 0.08833000000000003
982.141 0.08499999999999998
982.424 0.10833000000000005
982.707 0.07667000000000003
982.989 0.10999999999999989
983.272 0.08333000000000014
983.555 0.061669999999999905
983.838 0.09332999999999993
984.12 0.08333000000000014
984.403 0.09499999999999977
984.686 0.06999999999999985
984.969 0.08000000000000008
985.251 0.09499999999999977
985.532 0.09667000000000005
985.815 0.055000000000000174
986.098 0.08000000000000008
986.38 0.09832999999999982
986.663 0.08666999999999982
986.946 0.07499999999999975
987.228 0.08666999999999982
987.511 0.08499999999999998
987.794 0.08333000000000014
988.076 0.07167000000000014
988.357 0.105
988.639 0.09167000000000015
988.922 0.08333000000000014
989.205 0.06999999999999985
989.487 0.08833000000000003
989.77 0.09499999999999977
990.052 0.09832999999999982
990.335 0.07667000000000003
990.616 0.07332999999999991
990.898 0.10166999999999994
991.181 0.10166999999999994
991.463 0.08999999999999987
991.746 0.10166999999999994
992.028 0.11667000000000007
992.311 0.08333000000000014
992.591 0.10333000000000016
992.874 0.11332999999999994
993.156 0.10666999999999983
993.439 0.07667000000000003
993.721 0.09167000000000015
994.003 0.06999999999999985
994.284 0.08499999999999998
994.566 0.10166999999999994
994.849 0.10833000000000005
995.131 0.11832999999999984
995.414 0.08666999999999982
995.696 0.08499999999999998
995.976 0.09332999999999993
996.259 0.09499999999999977
996.541 0.05667000000000001
996.823 0.09832999999999982
997.106 0.09332999999999993
997.386 0.10666999999999983
997.669 0.08333000000000014
997.951 0.11167000000000017
998.233 0.08000000000000008
998.516 0.10166999999999994
998.796 0.08833000000000003
999.078 0.08333000000000014
999.36 0.09332999999999993
999.643 0.09667000000000005
999.923 0.08499999999999998
1000.21 0.1000000000000001
1000.49 0.09167000000000015
1000.77 0.07667000000000003
1001.05 0.10166999999999994
1001.33 0.08499999999999998
1001.61 0.10666999999999983
1001.9 0.09499999999999977
1002.18 0.11332999999999994
1002.46 0.125
1002.74 0.08999999999999987
1003.02 0.0666699999999998
1003.3 0.10333000000000016
1003.59 0.10166999999999994
1003.87 0.08999999999999987
1004.15 0.08000000000000008
1004.43 0.08333000000000014
1004.71 0.10333000000000016
1004.99 0.08833000000000003
1005.28 0.09499999999999977
1005.56 0.09332999999999993
1005.84 0.06833000000000002
1006.12 0.08999999999999987
1006.4 0.09167000000000015
1006.68 0.1000000000000001
1006.96 0.11332999999999994
1007.24 0.10666999999999983
1007.53 0.09499999999999977
1007.81 0.11167000000000017
1008.09 0.08499999999999998
1008.37 0.09167000000000015
1008.65 0.08999999999999987
1008.93 0.09167000000000015
1009.21 0.08000000000000008
1009.5 0.07167000000000014
1009.78 0.10999999999999989
1010.06 0.05167000000000012
1010.34 0.10999999999999989
1010.62 0.08833000000000003
1010.9 0.08499999999999998
1011.18 0.1000000000000001
1011.47 0.09167000000000015
1011.75 0.10833000000000005
1012.03 0.055000000000000174
1012.31 0.08499999999999998
1012.59 0.11167000000000017
1012.87 0.09167000000000015
1013.15 0.07332999999999991
1013.43 0.08000000000000008
1013.72 0.08833000000000003
1014.0 0.0666699999999998
1014.28 0.09667000000000005
1014.56 0.08999999999999987
1014.84 0.08666999999999982
1015.12 0.09667000000000005
1015.4 0.08166999999999992
1015.68 0.0666699999999998
1015.96 0.0783299999999998
1016.24 0.08999999999999987
1016.53 0.08666999999999982
1016.81 0.07332999999999991
1017.09 0.10333000000000016
1017.37 0.10166999999999994
1017.65 0.10666999999999983
1017.93 0.05332999999999989
1018.21 0.08666999999999982
1018.49 0.06999999999999985
1018.77 0.10666999999999983
1019.05 0.08666999999999982
1019.33 0.105
1019.61 0.11332999999999994
1019.9 0.07167000000000014
1020.18 0.1000000000000001
1020.46 0.08499999999999998
1020.74 0.08666999999999982
1021.02 0.08833000000000003
1021.3 0.08499999999999998
1021.58 0.04833
1021.86 0.0783299999999998
1022.14 0.1000000000000001
1022.42 0.061669999999999905
1022.7 0.061669999999999905
1022.98 0.06999999999999985
1023.26 0.11667000000000007
1023.54 0.09832999999999982
1023.83 0.09832999999999982
1024.11 0.10666999999999983
1024.39 0.08000000000000008
1024.67 0.07499999999999975
1024.95 0.10833000000000005
1025.23 0.10999999999999989
1025.51 0.07499999999999975
1025.79 0.08000000000000008
1026.07 0.105
1026.35 0.08833000000000003
1026.63 0.11667000000000007
1026.91 0.09499999999999977
1027.19 0.05167000000000012
1027.47 0.10166999999999994
1027.75 0.09499999999999977
1028.03 0.08166999999999992
1028.31 0.09499999999999977
1028.59 0.1000000000000001
1028.87 0.08833000000000003
1029.15 0.08499999999999998
1029.43 0.10833000000000005
1029.71 0.10333000000000016
1030.0 0.06833000000000002
1030.27 0.10666999999999983
1030.56 0.10333000000000016
1030.84 0.1000000000000001
1031.12 0.08499999999999998
1031.4 0.09499999999999977
1031.68 0.1000000000000001
1031.96 0.09832999999999982
1032.24 0.06999999999999985
1032.52 0.0783299999999998
1032.8 0.08166999999999992
1033.08 0.1000000000000001
1033.36 0.07667000000000003
1033.64 0.08833000000000003
1033.92 0.08666999999999982
1034.2 0.09332999999999993
1034.48 0.09667000000000005
1034.76 0.08999999999999987
1035.04 0.11832999999999984
1035.32 0.12166999999999996
1035.6 0.10666999999999983
1035.88 0.11332999999999994
1036.16 0.08000000000000008
1036.44 0.0783299999999998
1036.72 0.10833000000000005
1037.0 0.09167000000000015
1037.28 0.11667000000000007
1037.56 0.09832999999999982
1037.84 0.12000000000000012
1038.12 0.09499999999999977
1038.4 0.09667000000000005
1038.68 0.08833000000000003
1038.96 0.08833000000000003
1039.24 0.09667000000000005
1039.52 0.10666999999999983
1039.79 0.08833000000000003
1040.08 0.06833000000000002
1040.35 0.08333000000000014
1040.64 0.11832999999999984
1040.91 0.11499999999999978
1041.19 0.07667000000000003
1041.47 0.09167000000000015
1041.75 0.07667000000000003
1042.03 0.12166999999999996
1042.31 0.10999999999999989
1042.59 0.10833000000000005
1042.87 0.12333000000000018
1043.15 0.09667000000000005
1043.43 0.09832999999999982
1043.71 0.10999999999999989
1043.99 0.10333000000000016
1044.27 0.09332999999999993
1044.55 0.09832999999999982
1044.83 0.09499999999999977
1045.11 0.08833000000000003
1045.39 0.10166999999999994
1045.67 0.10999999999999989
1045.95 0.09832999999999982
1046.23 0.09667000000000005
1046.51 0.11499999999999978
1046.79 0.061669999999999905
1047.06 0.08166999999999992
1047.34 0.11832999999999984
1047.62 0.08499999999999998
1047.9 0.10833000000000005
1048.18 0.09499999999999977
1048.46 0.10166999999999994
1048.74 0.125
1049.02 0.09167000000000015
1049.3 0.10666999999999983
1049.58 0.105
1049.86 0.10666999999999983
1050.14 0.1000000000000001
1050.42 0.10166999999999994
1050.7 0.09499999999999977
1050.97 0.055000000000000174
1051.25 0.11332999999999994
1051.53 0.09832999999999982
1051.81 0.10333000000000016
1052.09 0.10999999999999989
1052.37 0.09667000000000005
1052.65 0.08999999999999987
1052.93 0.105
1053.21 0.105
1053.49 0.11832999999999984
1053.77 0.08666999999999982
1054.05 0.105
1054.32 0.09832999999999982
1054.6 0.11667000000000007
1054.88 0.10999999999999989
1055.16 0.08666999999999982
1055.44 0.10833000000000005
1055.72 0.11499999999999978
1056.0 0.10166999999999994
1056.28 0.10833000000000005
1056.56 0.09832999999999982
1056.84 0.08999999999999987
1057.11 0.11332999999999994
1057.39 0.08333000000000014
1057.67 0.10833000000000005
1057.95 0.10166999999999994
1058.23 0.10166999999999994
1058.51 0.13332999999999995
1058.79 0.12333000000000018
1059.07 0.09332999999999993
1059.34 0.10666999999999983
1059.62 0.11667000000000007
1059.9 0.1299999999999999
1060.18 0.11167000000000017
1060.46 0.10166999999999994
1060.74 0.11332999999999994
1061.02 0.12000000000000012
1061.3 0.08333000000000014
1061.57 0.11667000000000007
1061.85 0.11832999999999984
1062.13 0.11167000000000017
1062.41 0.11499999999999978
1062.69 0.12833000000000006
1062.97 0.13332999999999995
1063.25 0.10333000000000016
1063.53 0.1299999999999999
1063.8 0.09667000000000005
1064.08 0.10166999999999994
1064.36 0.11167000000000017
1064.64 0.1299999999999999
1064.92 0.10166999999999994
1065.2 0.105
1065.47 0.08833000000000003
1065.75 0.09667000000000005
1066.03 0.11332999999999994
1066.31 0.1299999999999999
1066.59 0.13166999999999973
1066.87 0.11167000000000017
1067.14 0.125
1067.42 0.12000000000000012
1067.7 0.10999999999999989
1067.98 0.11167000000000017
1068.26 0.105
1068.54 0.08999999999999987
1068.82 0.10999999999999989
1069.09 0.13667000000000007
1069.37 0.10333000000000016
1069.65 0.08999999999999987
1069.93 0.09167000000000015
1070.21 0.10833000000000005
1070.48 0.13166999999999973
1070.76 0.105
1071.04 0.125
1071.32 0.09667000000000005
1071.6 0.10999999999999989
1071.87 0.11167000000000017
1072.15 0.09667000000000005
1072.43 0.0783299999999998
1072.71 0.10999999999999989
1072.99 0.10999999999999989
1073.26 0.12833000000000006
1073.54 0.15332999999999997
1073.82 0.13166999999999973
1074.1 0.09832999999999982
1074.38 0.12333000000000018
1074.65 0.11499999999999978
1074.93 0.10833000000000005
1075.21 0.10166999999999994
1075.49 0.12666999999999984
1075.77 0.10666999999999983
1076.05 0.1299999999999999
1076.32 0.1349999999999998
1076.6 0.13332999999999995
1076.88 0.12333000000000018
1077.16 0.1299999999999999
1077.43 0.12166999999999996
1077.71 0.11832999999999984
1077.99 0.10166999999999994
1078.27 0.13332999999999995
1078.55 0.12333000000000018
1078.82 0.09499999999999977
1079.1 0.14166999999999996
1079.38 0.10999999999999989
1079.66 0.11667000000000007
1079.93 0.10833000000000005
1080.21 0.11332999999999994
1080.49 0.11832999999999984
1080.77 0.11499999999999978
1081.05 0.10666999999999983
1081.32 0.10333000000000016
1081.6 0.12000000000000012
1081.88 0.09499999999999977
1082.16 0.13332999999999995
1082.43 0.10833000000000005
1082.71 0.11832999999999984
1082.99 0.12000000000000012
1083.27 0.09832999999999982
1083.54 0.13166999999999973
1083.82 0.12000000000000012
1084.1 0.11167000000000017
1084.38 0.1000000000000001
1084.65 0.10666999999999983
1084.93 0.09332999999999993
1085.21 0.11499999999999978
1085.49 0.08833000000000003
1085.76 0.125
1086.04 0.11167000000000017
1086.32 0.09832999999999982
1086.6 0.08666999999999982
1086.87 0.12833000000000006
1087.15 0.1000000000000001
1087.43 0.105
1087.71 0.1349999999999998
1087.98 0.10666999999999983
1088.26 0.125
1088.54 0.06833000000000002
1088.81 0.11499999999999978
1089.09 0.11667000000000007
1089.37 0.1349999999999998
1089.65 0.13667000000000007
1089.92 0.11832999999999984
1090.2 0.11167000000000017
1090.48 0.10999999999999989
1090.75 0.12000000000000012
1091.03 0.11167000000000017
