# Created: 2019-11-28 14:58:12.953470
# rshift intensity
50.0876 0.1033299999999997
50.4136 0.10999999999999988
50.7397 0.1033299999999997
51.0657 0.07667000000000002
51.3917 0.11999999999999966
51.7177 0.09999999999999964
52.0437 0.09667000000000003
52.3697 0.1033299999999997
52.6956 0.10666999999999982
53.0216 0.12332999999999972
53.3475 0.11666999999999961
53.6735 0.08999999999999986
53.9972 0.11666999999999961
54.3231 0.12666999999999984
54.649 0.09999999999999964
54.9749 0.12666999999999984
55.3008 0.1299999999999999
55.6266 0.09667000000000003
55.9525 0.14666999999999986
56.2783 0.09667000000000003
56.6042 0.1033299999999997
56.93 0.08332999999999968
57.2558 0.08999999999999986
57.5794 0.10999999999999988
57.9052 0.13999999999999968
58.231 0.07999999999999963
58.5568 0.11332999999999993
58.8825 0.09332999999999991
59.2082 0.12332999999999972
59.534 0.07667000000000002
59.8597 0.1033299999999997
60.1832 0.06332999999999966
60.5089 0.09332999999999991
60.8346 0.11666999999999961
61.1603 0.11999999999999966
61.4859 0.11666999999999961
61.8116 0.11666999999999961
62.1372 0.11666999999999961
62.4607 0.13999999999999968
62.7863 0.1033299999999997
63.1119 0.10999999999999988
63.4375 0.1299999999999999
63.7631 0.11999999999999966
64.0887 0.0866699999999998
64.4142 0.11999999999999966
64.7376 0.11332999999999993
65.0631 0.11999999999999966
65.3887 0.1499999999999999
65.7142 0.14332999999999974
66.0397 0.16332999999999975
66.3652 0.1299999999999999
66.6885 0.14666999999999986
67.014 0.16999999999999993
67.3394 0.17999999999999972
67.6649 0.16666999999999987
67.9903 0.16999999999999993
68.3136 0.22666999999999993
68.639 0.2233299999999998
68.9644 0.2233299999999998
69.2898 0.25666999999999973
69.6152 0.26666999999999996
69.9384 0.2799999999999998
70.2637 0.28667
70.5891 0.26666999999999996
70.9144 0.27
71.2397 0.2799999999999998
71.5629 0.24666999999999994
71.8882 0.2166699999999997
72.2135 0.22999999999999998
72.5387 0.25
72.864 0.18332999999999977
73.1871 0.18999999999999995
73.5124 0.2033299999999998
73.8376 0.1866699999999999
74.1628 0.18332999999999977
74.4859 0.14666999999999986
74.8111 0.17666999999999966
75.1363 0.14666999999999986
75.4614 0.10999999999999988
75.7845 0.09999999999999964
76.1096 0.13999999999999968
76.4347 0.09332999999999991
76.7599 0.11999999999999966
77.0828 0.11332999999999993
77.408 0.08999999999999986
77.733 0.10666999999999982
78.0581 0.08999999999999986
78.3811 0.08999999999999986
78.7061 0.0733299999999999
79.0312 0.0866699999999998
79.3562 0.06999999999999984
79.6791 0.08332999999999968
80.0041 0.08332999999999968
80.3291 0.08332999999999968
80.6541 0.08999999999999986
80.9769 0.0866699999999998
81.3019 0.09999999999999964
81.6269 0.07667000000000002
81.9497 0.10999999999999988
82.2746 0.07999999999999963
82.5995 0.10666999999999982
82.9223 0.1033299999999997
83.2472 0.1033299999999997
83.5721 0.09667000000000003
83.897 0.08999999999999986
84.2197 0.0866699999999998
84.5446 0.05999999999999961
84.8694 0.10999999999999988
85.1921 0.08332999999999968
85.5169 0.10666999999999982
85.8418 0.08332999999999968
86.1644 0.10999999999999988
86.4892 0.0733299999999999
86.814 0.08999999999999986
87.1366 0.11332999999999993
87.4614 0.08999999999999986
87.7861 0.09999999999999964
88.1087 0.09332999999999991
88.4334 0.09999999999999964
88.7581 0.0866699999999998
89.0807 0.0866699999999998
89.4054 0.08332999999999968
89.7301 0.07667000000000002
90.0526 0.08999999999999986
90.3773 0.09332999999999991
90.7019 0.07999999999999963
91.0244 0.09999999999999964
91.349 0.09332999999999991
91.6736 0.0733299999999999
91.9961 0.06666999999999978
92.3207 0.06999999999999984
92.6431 0.09667000000000003
92.9677 0.07999999999999963
93.2922 0.09332999999999991
93.6147 0.10666999999999982
93.9392 0.09999999999999964
94.2637 0.10666999999999982
94.5861 0.08999999999999986
94.9106 0.08999999999999986
95.2329 0.09667000000000003
95.5574 0.1033299999999997
95.8819 0.06999999999999984
96.2042 0.1033299999999997
96.5286 0.11332999999999993
96.8509 0.07667000000000002
97.1753 0.10999999999999988
97.4997 0.08999999999999986
97.822 0.13666999999999963
98.1464 0.07667000000000002
98.4686 0.13666999999999963
98.793 0.09999999999999964
99.1173 0.0866699999999998
99.4396 0.09332999999999991
99.7639 0.06999999999999984
100.086 0.09332999999999991
100.41 0.08332999999999968
100.733 0.11999999999999966
101.057 0.09667000000000003
101.381 0.0866699999999998
101.703 0.09667000000000003
102.027 0.09999999999999964
102.35 0.1299999999999999
102.674 0.09667000000000003
102.996 0.09332999999999991
103.32 0.0866699999999998
103.642 0.1033299999999997
103.966 0.06332999999999966
104.288 0.08999999999999986
104.613 0.07667000000000002
104.937 0.08332999999999968
105.259 0.05667
105.583 0.09332999999999991
105.905 0.09332999999999991
106.229 0.1033299999999997
106.551 0.10999999999999988
106.875 0.08999999999999986
107.197 0.09332999999999991
107.521 0.07999999999999963
107.843 0.0733299999999999
108.167 0.0866699999999998
108.489 0.09999999999999964
108.813 0.0866699999999998
109.135 0.09999999999999964
109.459 0.09332999999999991
109.781 0.05667
110.104 0.09332999999999991
110.426 0.08999999999999986
110.75 0.06999999999999984
111.072 0.08999999999999986
111.396 0.09999999999999964
111.718 0.10999999999999988
112.042 0.09667000000000003
112.363 0.0866699999999998
112.687 0.06666999999999978
113.009 0.1033299999999997
113.333 0.07667000000000002
113.655 0.07667000000000002
113.978 0.11332999999999993
114.3 0.14666999999999986
114.624 0.1033299999999997
114.946 0.07667000000000002
115.267 0.1033299999999997
115.591 0.09332999999999991
115.913 0.08332999999999968
116.236 0.10999999999999988
116.558 0.1033299999999997
116.882 0.11999999999999966
117.203 0.12332999999999972
117.527 0.12332999999999972
117.849 0.08999999999999986
118.17 0.12332999999999972
118.494 0.09332999999999991
118.816 0.0866699999999998
119.139 0.1033299999999997
119.461 0.1499999999999999
119.784 0.11999999999999966
120.106 0.11332999999999993
120.427 0.13666999999999963
120.751 0.0733299999999999
121.072 0.08332999999999968
121.396 0.12332999999999972
121.717 0.10999999999999988
122.039 0.07667000000000002
122.362 0.0866699999999998
122.684 0.09332999999999991
123.007 0.05667
123.329 0.07667000000000002
123.65 0.1033299999999997
123.974 0.10666999999999982
124.295 0.0866699999999998
124.618 0.09667000000000003
124.94 0.0866699999999998
125.261 0.0733299999999999
125.584 0.08332999999999968
125.906 0.06999999999999984
126.229 0.09999999999999964
126.55 0.08999999999999986
126.872 0.06332999999999966
127.195 0.06999999999999984
127.516 0.11666999999999961
127.838 0.09332999999999991
128.161 0.08999999999999986
128.482 0.09332999999999991
128.803 0.05999999999999961
129.127 0.1033299999999997
129.448 0.09667000000000003
129.769 0.1033299999999997
130.092 0.09999999999999964
130.413 0.09999999999999964
130.737 0.08332999999999968
131.058 0.09667000000000003
131.379 0.09667000000000003
131.702 0.07999999999999963
132.023 0.07999999999999963
132.344 0.07999999999999963
132.665 0.10999999999999988
132.988 0.08332999999999968
133.309 0.09332999999999991
133.63 0.06999999999999984
133.954 0.10999999999999988
134.275 0.04666999999999977
134.596 0.1033299999999997
134.919 0.09667000000000003
135.24 0.0733299999999999
135.561 0.0866699999999998
135.884 0.07999999999999963
136.205 0.0733299999999999
136.526 0.06666999999999978
136.847 0.11332999999999993
137.17 0.07667000000000002
137.49 0.06999999999999984
137.811 0.05667
138.134 0.08332999999999968
138.455 0.09999999999999964
138.776 0.07667000000000002
139.097 0.06999999999999984
139.42 0.09332999999999991
139.741 0.1033299999999997
140.061 0.09332999999999991
140.384 0.07999999999999963
140.705 0.0733299999999999
141.026 0.07667000000000002
141.347 0.10999999999999988
141.67 0.07667000000000002
141.99 0.08999999999999986
142.311 0.09999999999999964
142.632 0.06999999999999984
142.955 0.09332999999999991
143.275 0.08332999999999968
143.596 0.0733299999999999
143.917 0.08332999999999968
144.239 0.08999999999999986
144.56 0.06666999999999978
144.881 0.06999999999999984
145.201 0.0866699999999998
145.522 0.1033299999999997
145.845 0.08999999999999986
146.165 0.05667
146.486 0.07667000000000002
146.807 0.07999999999999963
147.129 0.08332999999999968
147.45 0.0866699999999998
147.77 0.07999999999999963
148.091 0.06666999999999978
148.411 0.06666999999999978
148.734 0.1033299999999997
149.054 0.07667000000000002
149.375 0.08332999999999968
149.695 0.0866699999999998
150.016 0.07999999999999963
150.339 0.05667
150.659 0.08999999999999986
150.979 0.07667000000000002
151.3 0.09332999999999991
151.62 0.10999999999999988
151.941 0.10999999999999988
152.263 0.11332999999999993
152.583 0.09999999999999964
152.904 0.09332999999999991
153.224 0.09999999999999964
153.545 0.09667000000000003
153.865 0.08999999999999986
154.187 0.06999999999999984
154.508 0.11999999999999966
154.828 0.1033299999999997
155.148 0.07667000000000002
155.469 0.11666999999999961
155.789 0.07667000000000002
156.111 0.09667000000000003
156.431 0.0866699999999998
156.752 0.1033299999999997
157.072 0.06666999999999978
157.392 0.08999999999999986
157.712 0.09667000000000003
158.032 0.1033299999999997
158.353 0.0733299999999999
158.675 0.07667000000000002
158.995 0.0866699999999998
159.315 0.11666999999999961
159.635 0.09332999999999991
159.955 0.10666999999999982
160.276 0.09332999999999991
160.596 0.09667000000000003
160.916 0.10999999999999988
161.236 0.0733299999999999
161.558 0.12666999999999984
161.878 0.1033299999999997
162.198 0.09999999999999964
162.518 0.0866699999999998
162.838 0.06332999999999966
163.158 0.06332999999999966
163.478 0.08332999999999968
163.798 0.09999999999999964
164.118 0.06666999999999978
164.438 0.11332999999999993
164.758 0.0866699999999998
165.08 0.0866699999999998
165.4 0.08332999999999968
165.72 0.0866699999999998
166.04 0.10666999999999982
166.36 0.09667000000000003
166.68 0.07667000000000002
167.0 0.06999999999999984
167.32 0.09999999999999964
167.639 0.0866699999999998
167.959 0.07667000000000002
168.279 0.06666999999999978
168.599 0.09999999999999964
168.919 0.08332999999999968
169.239 0.08332999999999968
169.558 0.0733299999999999
169.878 0.07667000000000002
170.198 0.1033299999999997
170.518 0.05332999999999988
170.837 0.07667000000000002
171.157 0.07667000000000002
171.479 0.07667000000000002
171.799 0.09999999999999964
172.118 0.0866699999999998
172.438 0.09332999999999991
172.758 0.08999999999999986
173.077 0.1033299999999997
173.397 0.06666999999999978
173.717 0.07667000000000002
174.036 0.0866699999999998
174.356 0.08332999999999968
174.676 0.1033299999999997
174.995 0.08999999999999986
175.315 0.08332999999999968
175.634 0.06999999999999984
175.954 0.07999999999999963
176.274 0.07667000000000002
176.593 0.10666999999999982
176.913 0.06332999999999966
177.232 0.0733299999999999
177.552 0.10999999999999988
177.869 0.07667000000000002
178.189 0.0733299999999999
178.508 0.05999999999999961
178.828 0.0866699999999998
179.147 0.05667
179.467 0.07667000000000002
179.786 0.07999999999999963
180.105 0.08999999999999986
180.425 0.10666999999999982
180.744 0.09332999999999991
181.064 0.08999999999999986
181.383 0.06332999999999966
181.702 0.06666999999999978
182.022 0.07999999999999963
182.341 0.09667000000000003
182.66 0.11999999999999966
182.98 0.09667000000000003
183.299 0.08999999999999986
183.618 0.1033299999999997
183.938 0.10666999999999982
184.255 0.06999999999999984
184.574 0.07667000000000002
184.893 0.07999999999999963
185.213 0.09332999999999991
185.532 0.10666999999999982
185.851 0.05667
186.17 0.07667000000000002
186.49 0.08999999999999986
186.809 0.07999999999999963
187.128 0.07999999999999963
187.447 0.09667000000000003
187.764 0.09332999999999991
188.083 0.09667000000000003
188.403 0.10666999999999982
188.722 0.04332999999999965
189.041 0.05667
189.36 0.09667000000000003
189.679 0.07667000000000002
189.998 0.0866699999999998
190.317 0.06666999999999978
190.634 0.08332999999999968
190.953 0.08332999999999968
191.272 0.07999999999999963
191.591 0.1299999999999999
191.91 0.06999999999999984
192.229 0.0866699999999998
192.548 0.06999999999999984
192.865 0.11332999999999993
193.184 0.10999999999999988
193.503 0.1033299999999997
193.822 0.0733299999999999
194.141 0.06332999999999966
194.46 0.09667000000000003
194.779 0.05999999999999961
195.096 0.09667000000000003
195.415 0.0733299999999999
195.734 0.0733299999999999
196.052 0.07999999999999963
196.371 0.09332999999999991
196.69 0.10999999999999988
197.007 0.09332999999999991
197.326 0.08332999999999968
197.645 0.0733299999999999
197.963 0.08999999999999986
198.282 0.07667000000000002
198.599 0.08332999999999968
198.918 0.09667000000000003
199.236 0.08332999999999968
199.555 0.09999999999999964
199.874 0.0733299999999999
200.191 0.1299999999999999
200.509 0.07667000000000002
200.828 0.0866699999999998
201.147 0.10999999999999988
201.466 0.06999999999999984
201.782 0.08332999999999968
202.101 0.09667000000000003
202.419 0.09332999999999991
202.738 0.06999999999999984
203.057 0.06666999999999978
203.373 0.08332999999999968
203.692 0.06666999999999978
204.01 0.07667000000000002
204.329 0.0866699999999998
204.646 0.06666999999999978
204.964 0.05999999999999961
205.283 0.07667000000000002
205.601 0.0866699999999998
205.918 0.06666999999999978
206.236 0.08999999999999986
206.555 0.09332999999999991
206.873 0.06999999999999984
207.19 0.07999999999999963
207.508 0.09332999999999991
207.827 0.09332999999999991
208.145 0.1299999999999999
208.461 0.09332999999999991
208.78 0.08999999999999986
209.098 0.0866699999999998
209.417 0.11666999999999961
209.733 0.06666999999999978
210.052 0.0866699999999998
210.37 0.1033299999999997
210.686 0.09332999999999991
211.005 0.1033299999999997
211.323 0.07667000000000002
211.641 0.1033299999999997
211.957 0.04666999999999977
212.276 0.08332999999999968
212.594 0.08332999999999968
212.91 0.05667
213.229 0.10666999999999982
213.547 0.0866699999999998
213.863 0.07667000000000002
214.181 0.09332999999999991
214.5 0.09999999999999964
214.818 0.09999999999999964
215.134 0.1299999999999999
215.452 0.10999999999999988
215.77 0.0733299999999999
216.086 0.09667000000000003
216.405 0.09332999999999991
216.723 0.1033299999999997
217.039 0.07667000000000002
217.357 0.09999999999999964
217.675 0.11332999999999993
217.991 0.09667000000000003
218.309 0.09999999999999964
218.627 0.1033299999999997
218.943 0.11332999999999993
219.262 0.09667000000000003
219.578 0.06666999999999978
219.896 0.07999999999999963
220.214 0.10999999999999988
220.53 0.10999999999999988
220.848 0.08999999999999986
221.166 0.11332999999999993
221.482 0.12332999999999972
221.8 0.11332999999999993
222.118 0.10999999999999988
222.433 0.12666999999999984
222.751 0.09999999999999964
223.067 0.13332999999999995
223.385 0.1033299999999997
223.703 0.09332999999999991
224.019 0.11666999999999961
224.337 0.09999999999999964
224.653 0.1033299999999997
224.971 0.09999999999999964
225.288 0.09999999999999964
225.604 0.1033299999999997
225.922 0.11999999999999966
226.238 0.06666999999999978
226.556 0.1033299999999997
226.874 0.11666999999999961
227.189 0.12332999999999972
227.507 0.09667000000000003
227.823 0.09999999999999964
228.141 0.1299999999999999
228.458 0.09332999999999991
228.774 0.09332999999999991
229.092 0.13332999999999995
229.407 0.1299999999999999
229.725 0.09667000000000003
230.041 0.10666999999999982
230.358 0.10666999999999982
230.674 0.09999999999999964
230.992 0.11666999999999961
231.309 0.13332999999999995
231.625 0.12332999999999972
231.943 0.10999999999999988
232.258 0.09667000000000003
232.576 0.12332999999999972
232.891 0.07999999999999963
233.209 0.09667000000000003
233.524 0.09332999999999991
233.842 0.10999999999999988
234.157 0.12332999999999972
234.475 0.1033299999999997
234.79 0.06999999999999984
235.108 0.08332999999999968
235.426 0.08999999999999986
235.741 0.09999999999999964
236.058 0.1033299999999997
236.374 0.09332999999999991
236.691 0.09999999999999964
237.007 0.09999999999999964
237.324 0.09332999999999991
237.64 0.08999999999999986
237.957 0.08999999999999986
238.272 0.0866699999999998
238.59 0.10666999999999982
238.905 0.0866699999999998
239.223 0.12332999999999972
239.538 0.09667000000000003
239.855 0.11999999999999966
240.17 0.09999999999999964
240.486 0.1033299999999997
240.803 0.09667000000000003
241.118 0.09667000000000003
241.436 0.10666999999999982
241.751 0.09332999999999991
242.068 0.09332999999999991
242.383 0.09332999999999991
242.701 0.08999999999999986
243.016 0.10999999999999988
243.333 0.07999999999999963
243.648 0.09332999999999991
243.966 0.07999999999999963
244.281 0.10666999999999982
244.596 0.09999999999999964
244.913 0.08332999999999968
245.228 0.06999999999999984
245.545 0.09332999999999991
245.86 0.0866699999999998
246.178 0.0866699999999998
246.493 0.11999999999999966
246.81 0.0866699999999998
247.125 0.06332999999999966
247.44 0.11666999999999961
247.757 0.1033299999999997
248.072 0.08332999999999968
248.389 0.08332999999999968
248.704 0.12332999999999972
249.019 0.08999999999999986
249.336 0.08332999999999968
249.651 0.0866699999999998
249.968 0.08999999999999986
250.283 0.0866699999999998
250.598 0.07999999999999963
250.915 0.09332999999999991
251.23 0.11332999999999993
251.547 0.08999999999999986
251.862 0.09667000000000003
252.176 0.09667000000000003
252.493 0.11666999999999961
252.808 0.0733299999999999
253.125 0.07667000000000002
253.44 0.10666999999999982
253.755 0.12332999999999972
254.072 0.1033299999999997
254.387 0.11666999999999961
254.701 0.06332999999999966
255.018 0.1033299999999997
255.333 0.09999999999999964
255.648 0.09999999999999964
255.965 0.09999999999999964
256.279 0.09332999999999991
256.594 0.1033299999999997
256.911 0.08332999999999968
257.225 0.09999999999999964
257.542 0.07667000000000002
257.857 0.07999999999999963
258.172 0.09999999999999964
258.488 0.11666999999999961
258.803 0.09999999999999964
259.118 0.10999999999999988
259.434 0.08999999999999986
259.749 0.09667000000000003
260.064 0.07999999999999963
260.378 0.05999999999999961
260.695 0.12666999999999984
261.009 0.1033299999999997
261.324 0.09667000000000003
261.641 0.11332999999999993
261.955 0.13332999999999995
262.27 0.09332999999999991
262.586 0.10999999999999988
262.901 0.09999999999999964
263.215 0.11666999999999961
263.532 0.09999999999999964
263.846 0.08999999999999986
264.161 0.10999999999999988
264.475 0.10666999999999982
264.792 0.11666999999999961
265.106 0.09667000000000003
265.421 0.13999999999999968
265.735 0.09332999999999991
266.051 0.11999999999999966
266.366 0.12666999999999984
266.68 0.09999999999999964
266.997 0.07999999999999963
267.311 0.1299999999999999
267.625 0.08999999999999986
267.94 0.10666999999999982
268.256 0.11332999999999993
268.57 0.09999999999999964
268.885 0.10666999999999982
269.199 0.0866699999999998
269.515 0.11999999999999966
269.83 0.11999999999999966
270.144 0.0866699999999998
270.458 0.11999999999999966
270.774 0.09999999999999964
271.089 0.13332999999999995
271.403 0.12332999999999972
271.717 0.10999999999999988
272.031 0.08999999999999986
272.348 0.11332999999999993
272.662 0.13999999999999968
272.976 0.10999999999999988
273.29 0.09999999999999964
273.606 0.08999999999999986
273.92 0.07999999999999963
274.234 0.11666999999999961
274.549 0.09999999999999964
274.863 0.13666999999999963
275.179 0.08332999999999968
275.493 0.1033299999999997
275.807 0.11332999999999993
276.121 0.11999999999999966
276.435 0.08999999999999986
276.749 0.12332999999999972
277.065 0.0733299999999999
277.379 0.10666999999999982
277.693 0.0866699999999998
278.007 0.07999999999999963
278.321 0.0733299999999999
278.637 0.09999999999999964
278.951 0.1033299999999997
279.265 0.1033299999999997
279.579 0.1033299999999997
279.893 0.11666999999999961
280.207 0.10999999999999988
280.521 0.1299999999999999
280.837 0.10666999999999982
281.151 0.13999999999999968
281.465 0.11666999999999961
281.778 0.09999999999999964
282.092 0.09667000000000003
282.406 0.10666999999999982
282.72 0.08999999999999986
283.036 0.08999999999999986
283.35 0.10666999999999982
283.663 0.0866699999999998
283.977 0.10666999999999982
284.291 0.08332999999999968
284.605 0.1033299999999997
284.919 0.11332999999999993
285.232 0.07999999999999963
285.548 0.11666999999999961
285.862 0.11666999999999961
286.176 0.09667000000000003
286.489 0.08332999999999968
286.803 0.09667000000000003
287.117 0.11332999999999993
287.43 0.09999999999999964
287.744 0.1299999999999999
288.058 0.08999999999999986
288.373 0.10999999999999988
288.687 0.08999999999999986
289.001 0.09999999999999964
289.314 0.09667000000000003
289.628 0.11999999999999966
289.941 0.08999999999999986
290.255 0.1033299999999997
290.568 0.10999999999999988
290.882 0.10666999999999982
291.196 0.1033299999999997
291.509 0.07667000000000002
291.823 0.11332999999999993
292.136 0.13332999999999995
292.45 0.09332999999999991
292.763 0.09667000000000003
293.079 0.10999999999999988
293.392 0.11666999999999961
293.706 0.10999999999999988
294.019 0.12666999999999984
294.332 0.09999999999999964
294.646 0.11332999999999993
294.959 0.05999999999999961
295.273 0.13666999999999963
295.586 0.11666999999999961
295.899 0.1033299999999997
296.213 0.1299999999999999
296.526 0.10666999999999982
296.84 0.10999999999999988
297.153 0.11666999999999961
297.466 0.11666999999999961
297.78 0.11666999999999961
298.093 0.13666999999999963
298.406 0.10999999999999988
298.719 0.1033299999999997
299.033 0.08332999999999968
299.346 0.11666999999999961
299.659 0.09332999999999991
299.972 0.13332999999999995
300.286 0.11332999999999993
300.599 0.12666999999999984
300.912 0.11666999999999961
301.225 0.1033299999999997
301.539 0.12332999999999972
301.852 0.14666999999999986
302.165 0.12332999999999972
302.478 0.10666999999999982
302.791 0.09332999999999991
303.104 0.09999999999999964
303.417 0.13332999999999995
303.731 0.13332999999999995
304.044 0.11999999999999966
304.357 0.14332999999999974
304.67 0.11332999999999993
304.983 0.1499999999999999
305.296 0.15332999999999997
305.607 0.11666999999999961
305.92 0.14666999999999986
306.233 0.11999999999999966
306.546 0.1299999999999999
306.859 0.08999999999999986
307.172 0.12666999999999984
307.485 0.11332999999999993
307.798 0.1299999999999999
308.111 0.11666999999999961
308.424 0.12332999999999972
308.737 0.13999999999999968
309.05 0.13999999999999968
309.363 0.13666999999999963
309.676 0.1299999999999999
309.986 0.11666999999999961
310.299 0.10666999999999982
310.612 0.13666999999999963
310.925 0.11999999999999966
311.238 0.16332999999999975
311.551 0.13666999999999963
311.864 0.17332999999999998
312.177 0.14332999999999974
312.489 0.13999999999999968
312.802 0.14332999999999974
313.113 0.11332999999999993
313.426 0.16332999999999975
313.738 0.11999999999999966
314.051 0.12332999999999972
314.364 0.13666999999999963
314.677 0.17332999999999998
314.989 0.13666999999999963
315.302 0.14666999999999986
315.613 0.14666999999999986
315.925 0.13999999999999968
316.238 0.11666999999999961
316.551 0.16666999999999987
316.864 0.16332999999999975
317.176 0.15666999999999964
317.489 0.15332999999999997
317.799 0.12666999999999984
318.112 0.11666999999999961
318.425 0.16332999999999975
318.737 0.1299999999999999
319.05 0.1299999999999999
319.362 0.15666999999999964
319.673 0.14666999999999986
319.986 0.12666999999999984
320.298 0.15332999999999997
320.611 0.16999999999999993
320.923 0.14332999999999974
321.236 0.1599999999999997
321.546 0.14666999999999986
321.859 0.1599999999999997
322.171 0.14332999999999974
322.484 0.11332999999999993
322.796 0.15666999999999964
323.106 0.15666999999999964
323.419 0.14666999999999986
323.731 0.13999999999999968
324.044 0.13332999999999995
324.356 0.13332999999999995
324.666 0.12332999999999972
324.979 0.1499999999999999
325.291 0.1299999999999999
325.604 0.14332999999999974
325.916 0.12666999999999984
326.226 0.14666999999999986
326.539 0.16332999999999975
326.851 0.12332999999999972
327.163 0.14332999999999974
327.474 0.1499999999999999
327.786 0.13999999999999968
328.098 0.1599999999999997
328.41 0.14666999999999986
328.721 0.1499999999999999
329.033 0.14332999999999974
329.345 0.16332999999999975
329.657 0.1499999999999999
329.967 0.12666999999999984
330.28 0.15332999999999997
330.592 0.17999999999999972
330.904 0.16666999999999987
331.214 0.11332999999999993
331.526 0.15666999999999964
331.839 0.1499999999999999
332.151 0.14666999999999986
332.461 0.1299999999999999
332.773 0.12666999999999984
333.085 0.1599999999999997
333.395 0.15332999999999997
333.707 0.17666999999999966
334.019 0.1299999999999999
334.331 0.14332999999999974
334.641 0.15332999999999997
334.953 0.13332999999999995
335.265 0.11999999999999966
335.575 0.15666999999999964
335.887 0.16332999999999975
336.199 0.14332999999999974
336.511 0.10999999999999988
336.821 0.12332999999999972
337.133 0.1599999999999997
337.445 0.1499999999999999
337.755 0.1499999999999999
338.067 0.1499999999999999
338.379 0.13666999999999963
338.689 0.16332999999999975
339.001 0.16999999999999993
339.313 0.16666999999999987
339.623 0.15666999999999964
339.934 0.14332999999999974
340.246 0.18999999999999995
340.556 0.13666999999999963
340.868 0.16332999999999975
341.18 0.20999999999999996
341.49 0.1866699999999999
341.801 0.17332999999999998
342.113 0.16666999999999987
342.423 0.16666999999999987
342.735 0.16666999999999987
343.044 0.17999999999999972
343.356 0.15332999999999997
343.668 0.14332999999999974
343.978 0.17666999999999966
344.289 0.1599999999999997
344.601 0.16999999999999993
344.911 0.14332999999999974
345.223 0.16666999999999987
345.532 0.2066699999999999
345.844 0.17332999999999998
346.156 0.17666999999999966
346.465 0.16666999999999987
346.777 0.17666999999999966
347.086 0.17999999999999972
347.398 0.16332999999999975
347.71 0.16999999999999993
348.019 0.1599999999999997
348.331 0.16666999999999987
348.64 0.13666999999999963
348.952 0.15332999999999997
349.263 0.17999999999999972
349.573 0.19666999999999968
349.885 0.17666999999999966
350.194 0.16999999999999993
350.506 0.14332999999999974
350.815 0.19666999999999968
351.126 0.18332999999999977
351.438 0.12666999999999984
351.747 0.19333
352.059 0.18332999999999977
352.368 0.1866699999999999
352.68 0.14666999999999986
352.989 0.18999999999999995
353.301 0.17999999999999972
353.612 0.17999999999999972
353.921 0.17666999999999966
354.233 0.1499999999999999
354.542 0.15666999999999964
354.853 0.15666999999999964
355.163 0.17332999999999998
355.474 0.18999999999999995
355.783 0.17999999999999972
356.095 0.19333
356.404 0.17332999999999998
356.715 0.1599999999999997
357.025 0.16332999999999975
357.336 0.17332999999999998
357.645 0.19333
357.956 0.1599999999999997
358.266 0.19333
358.577 0.19999999999999973
358.886 0.16999999999999993
359.197 0.17332999999999998
359.506 0.19999999999999973
359.818 0.16999999999999993
360.127 0.19666999999999968
360.438 0.18332999999999977
360.747 0.14666999999999986
361.058 0.1599999999999997
361.367 0.1866699999999999
361.678 0.19999999999999973
361.988 0.16999999999999993
362.299 0.2033299999999998
362.608 0.19666999999999968
362.919 0.16332999999999975
363.228 0.17666999999999966
363.539 0.1866699999999999
363.848 0.1599999999999997
364.159 0.20999999999999996
364.468 0.1499999999999999
364.779 0.18332999999999977
365.088 0.19333
365.397 0.20999999999999996
365.708 0.18999999999999995
366.017 0.1499999999999999
366.328 0.17666999999999966
366.637 0.17666999999999966
366.948 0.2066699999999999
367.257 0.17999999999999972
367.566 0.19666999999999968
367.877 0.1866699999999999
368.186 0.2033299999999998
368.496 0.18332999999999977
368.805 0.15332999999999997
369.116 0.1866699999999999
369.425 0.19999999999999973
369.734 0.16999999999999993
370.045 0.16666999999999987
370.353 0.1866699999999999
370.664 0.16332999999999975
370.973 0.19333
371.282 0.19666999999999968
371.593 0.19333
371.901 0.17999999999999972
372.212 0.17666999999999966
372.521 0.2033299999999998
372.83 0.1866699999999999
373.14 0.1599999999999997
373.449 0.16666999999999987
373.76 0.2033299999999998
374.069 0.20999999999999996
374.377 0.20999999999999996
374.688 0.1866699999999999
374.997 0.22666999999999993
375.305 0.1866699999999999
375.616 0.18332999999999977
375.924 0.20999999999999996
376.233 0.18999999999999995
376.544 0.16666999999999987
376.852 0.21333000000000002
377.161 0.21333000000000002
377.471 0.19333
377.78 0.2033299999999998
378.091 0.2066699999999999
378.399 0.17332999999999998
378.708 0.20999999999999996
379.018 0.18999999999999995
379.327 0.19333
379.635 0.18999999999999995
379.946 0.21333000000000002
380.254 0.18332999999999977
380.563 0.18999999999999995
380.871 0.18332999999999977
381.182 0.19333
381.49 0.2066699999999999
381.798 0.2599999999999998
382.109 0.20999999999999996
382.417 0.23999999999999977
382.726 0.23333000000000004
383.036 0.2233299999999998
383.344 0.22999999999999998
383.653 0.23333000000000004
383.961 0.25
384.272 0.23333000000000004
384.58 0.24332999999999982
384.888 0.18999999999999995
385.199 0.25
385.507 0.21333000000000002
385.815 0.23999999999999977
386.123 0.23333000000000004
386.434 0.21999999999999975
386.742 0.2233299999999998
387.05 0.2233299999999998
387.36 0.24666999999999994
387.669 0.19666999999999968
387.977 0.23999999999999977
388.285 0.2066699999999999
388.595 0.23999999999999977
388.903 0.24332999999999982
389.212 0.21999999999999975
389.52 0.24666999999999994
389.83 0.23666999999999971
390.138 0.2233299999999998
390.446 0.2599999999999998
390.754 0.26332999999999984
391.062 0.24332999999999982
391.373 0.25666999999999973
391.681 0.2799999999999998
391.989 0.3033299999999999
392.297 0.23999999999999977
392.607 0.29000000000000004
392.915 0.27
393.223 0.24332999999999982
393.531 0.2799999999999998
393.839 0.23999999999999977
394.149 0.26666999999999996
394.457 0.27332999999999963
394.765 0.28667
395.073 0.29000000000000004
395.381 0.27666999999999975
395.691 0.28332999999999986
395.999 0.32667
396.307 0.27
396.615 0.29000000000000004
396.923 0.31667000000000023
397.233 0.27332999999999963
397.54 0.32667
397.848 0.28332999999999986
398.156 0.33000000000000007
398.464 0.30666999999999955
398.772 0.28332999999999986
399.082 0.2999999999999998
399.39 0.32667
399.697 0.33999999999999986
400.005 0.28667
400.313 0.31667000000000023
400.621 0.3433299999999999
400.928 0.3366699999999998
401.238 0.33999999999999986
401.546 0.3433299999999999
401.854 0.3366699999999998
402.162 0.3366699999999998
402.469 0.3366699999999998
402.777 0.3333300000000001
403.085 0.37666999999999984
403.392 0.4166699999999999
403.702 0.3433299999999999
404.01 0.37666999999999984
404.317 0.31667000000000023
404.625 0.3366699999999998
404.933 0.3866699999999996
405.24 0.39332999999999974
405.548 0.39999999999999947
405.856 0.3533299999999997
406.163 0.3866699999999996
406.473 0.36667000000000005
406.78 0.39332999999999974
407.088 0.37666999999999984
407.395 0.39999999999999947
407.703 0.3799999999999999
408.011 0.4066700000000001
408.318 0.37333000000000016
408.626 0.36667000000000005
408.933 0.41000000000000014
409.241 0.44332999999999956
409.548 0.36667000000000005
409.855 0.41000000000000014
410.165 0.41000000000000014
410.472 0.43666999999999945
410.78 0.3966699999999994
411.087 0.39332999999999974
411.395 0.4166699999999999
411.702 0.4566699999999999
412.01 0.4399999999999995
412.317 0.4066700000000001
412.624 0.42666999999999966
412.932 0.4166699999999999
413.239 0.4466700000000001
413.546 0.4133300000000002
413.854 0.44332999999999956
414.161 0.4033299999999995
414.468 0.46333
414.776 0.42666999999999966
415.083 0.4399999999999995
415.39 0.43332999999999977
415.698 0.3966699999999994
416.005 0.3899999999999997
416.312 0.43332999999999977
416.619 0.39332999999999974
416.927 0.4566699999999999
417.234 0.42666999999999966
417.541 0.34999999999999964
417.848 0.35667000000000026
418.155 0.37666999999999984
418.463 0.39332999999999974
418.77 0.42666999999999966
419.077 0.42666999999999966
419.384 0.38332999999999995
419.691 0.4133300000000002
419.998 0.37666999999999984
420.305 0.35667000000000026
420.612 0.3700000000000001
420.92 0.4133300000000002
421.227 0.3899999999999997
421.534 0.37666999999999984
421.841 0.43666999999999945
422.148 0.4033299999999995
422.455 0.3633299999999995
422.762 0.38332999999999995
423.069 0.32332999999999945
423.376 0.3533299999999997
423.683 0.3700000000000001
423.99 0.35667000000000026
424.297 0.3799999999999999
424.604 0.3633299999999995
424.911 0.3700000000000001
425.218 0.34999999999999964
425.523 0.3433299999999999
425.83 0.37666999999999984
426.137 0.32332999999999945
426.444 0.35667000000000026
426.75 0.34999999999999964
427.057 0.33000000000000007
427.364 0.35667000000000026
427.671 0.2999999999999998
427.978 0.37333000000000016
428.285 0.3533299999999997
428.592 0.29666999999999977
428.899 0.3099999999999996
429.203 0.31667000000000023
429.51 0.32332999999999945
429.817 0.32667
430.124 0.3199999999999994
430.43 0.30666999999999955
430.737 0.34999999999999964
431.044 0.2799999999999998
431.351 0.3466699999999996
431.658 0.26332999999999984
431.962 0.3099999999999996
432.269 0.28667
432.576 0.29000000000000004
432.882 0.30666999999999955
433.189 0.33999999999999986
433.496 0.31667000000000023
433.802 0.28332999999999986
434.109 0.28667
434.414 0.32332999999999945
434.72 0.28332999999999986
435.027 0.3366699999999998
435.333 0.29332999999999965
435.64 0.29332999999999965
435.947 0.29332999999999965
436.251 0.29000000000000004
436.558 0.29666999999999977
436.864 0.29000000000000004
437.171 0.28667
437.477 0.27332999999999963
437.784 0.3099999999999996
438.088 0.31667000000000023
438.395 0.28332999999999986
438.701 0.28667
439.008 0.25
439.314 0.27
439.621 0.2799999999999998
439.925 0.23333000000000004
440.232 0.27332999999999963
440.538 0.25666999999999973
440.845 0.2799999999999998
441.151 0.27
441.455 0.26666999999999996
441.762 0.27332999999999963
442.068 0.2533299999999996
442.375 0.2799999999999998
442.679 0.25
442.985 0.24332999999999982
443.292 0.26666999999999996
443.598 0.2033299999999998
443.904 0.23999999999999977
444.209 0.25666999999999973
444.515 0.23999999999999977
444.821 0.2533299999999996
445.128 0.23666999999999971
445.432 0.25666999999999973
445.738 0.25666999999999973
446.044 0.2066699999999999
446.351 0.2533299999999996
446.655 0.2599999999999998
446.961 0.23666999999999971
447.267 0.24666999999999994
447.573 0.27332999999999963
447.878 0.21333000000000002
448.184 0.2533299999999996
448.49 0.2066699999999999
448.796 0.2599999999999998
449.1 0.23999999999999977
449.406 0.21999999999999975
449.712 0.24332999999999982
450.017 0.2533299999999996
450.323 0.2233299999999998
450.629 0.2066699999999999
450.935 0.25
451.239 0.22999999999999998
451.545 0.2066699999999999
451.851 0.22666999999999993
452.155 0.27666999999999975
452.461 0.22666999999999993
452.767 0.22999999999999998
453.073 0.24666999999999994
453.377 0.22666999999999993
453.683 0.2599999999999998
453.989 0.25
454.293 0.23333000000000004
454.599 0.25
454.905 0.25666999999999973
455.209 0.2233299999999998
455.515 0.22666999999999993
455.821 0.25
456.125 0.23666999999999971
456.431 0.2233299999999998
456.736 0.2599999999999998
457.04 0.22666999999999993
457.346 0.25666999999999973
457.652 0.23333000000000004
457.956 0.2166699999999997
458.262 0.2533299999999996
458.568 0.23333000000000004
458.871 0.24332999999999982
459.177 0.23333000000000004
459.481 0.24666999999999994
459.787 0.27666999999999975
460.092 0.24666999999999994
460.396 0.26666999999999996
460.702 0.26332999999999984
461.008 0.2599999999999998
461.311 0.27332999999999963
461.617 0.23999999999999977
461.921 0.27
462.227 0.2599999999999998
462.532 0.2599999999999998
462.836 0.26332999999999984
463.142 0.27666999999999975
463.445 0.2533299999999996
463.751 0.24666999999999994
464.057 0.25
464.36 0.22999999999999998
464.666 0.28667
464.969 0.22999999999999998
465.275 0.26666999999999996
465.581 0.25666999999999973
465.884 0.2599999999999998
466.19 0.2066699999999999
466.493 0.26332999999999984
466.799 0.23333000000000004
467.104 0.27332999999999963
467.408 0.27
467.713 0.29332999999999965
468.017 0.2799999999999998
468.322 0.28667
468.626 0.26666999999999996
468.931 0.25666999999999973
469.235 0.27666999999999975
469.54 0.29000000000000004
469.846 0.29666999999999977
470.149 0.3366699999999998
470.455 0.38332999999999995
470.758 0.4666699999999997
471.063 0.4833299999999996
471.367 0.4933299999999994
471.672 0.5
471.976 0.5266700000000002
472.281 0.4933299999999994
472.584 0.5099999999999998
472.89 0.5199999999999996
473.193 0.49666999999999994
473.498 0.46333
473.802 0.47999999999999954
474.107 0.4733299999999998
474.41 0.46333
474.715 0.4766699999999995
475.019 0.5133299999999998
475.324 0.5433300000000001
475.627 0.5133299999999998
475.932 0.48667000000000016
476.236 0.4033299999999995
476.541 0.38332999999999995
476.844 0.31667000000000023
477.149 0.29000000000000004
477.452 0.28667
477.758 0.2599999999999998
478.061 0.24666999999999994
478.366 0.27332999999999963
478.669 0.23999999999999977
478.974 0.25
479.277 0.27
479.583 0.26332999999999984
479.886 0.26332999999999984
480.189 0.25
480.494 0.2033299999999998
480.797 0.25
481.102 0.2233299999999998
481.405 0.24332999999999982
481.71 0.22999999999999998
482.013 0.23666999999999971
482.318 0.22666999999999993
482.621 0.2599999999999998
482.924 0.25
483.229 0.2166699999999997
483.532 0.23333000000000004
483.837 0.2033299999999998
484.14 0.23666999999999971
484.445 0.22999999999999998
484.748 0.1866699999999999
485.051 0.2166699999999997
485.356 0.18999999999999995
485.659 0.20999999999999996
485.964 0.21333000000000002
486.266 0.23666999999999971
486.569 0.20999999999999996
486.874 0.20999999999999996
487.177 0.22999999999999998
487.482 0.21999999999999975
487.785 0.24332999999999982
488.088 0.19333
488.392 0.19666999999999968
488.695 0.19999999999999973
488.998 0.2066699999999999
489.303 0.22666999999999993
489.606 0.2066699999999999
489.91 0.2066699999999999
490.213 0.19999999999999973
490.516 0.18999999999999995
490.821 0.19666999999999968
491.123 0.22666999999999993
491.426 0.22999999999999998
491.731 0.21333000000000002
492.033 0.21333000000000002
492.336 0.19333
492.641 0.21999999999999975
492.944 0.22666999999999993
493.246 0.19333
493.551 0.19333
493.853 0.19333
494.156 0.19666999999999968
494.461 0.24666999999999994
494.763 0.17999999999999972
495.066 0.17999999999999972
495.37 0.17666999999999966
495.673 0.19666999999999968
495.976 0.19333
496.28 0.16999999999999993
496.583 0.17332999999999998
496.885 0.19999999999999973
497.19 0.23333000000000004
497.492 0.1866699999999999
497.795 0.2033299999999998
498.097 0.2166699999999997
498.402 0.2166699999999997
498.704 0.19666999999999968
499.007 0.19666999999999968
499.311 0.18332999999999977
499.614 0.19333
499.916 0.1866699999999999
500.218 0.19999999999999973
500.523 0.21999999999999975
500.825 0.16999999999999993
501.128 0.20999999999999996
501.43 0.20999999999999996
501.734 0.18332999999999977
502.037 0.15666999999999964
502.339 0.2166699999999997
502.643 0.2066699999999999
502.946 0.22999999999999998
503.248 0.19666999999999968
503.55 0.16666999999999987
503.853 0.22666999999999993
504.157 0.2066699999999999
504.459 0.2033299999999998
504.762 0.2166699999999997
505.064 0.22999999999999998
505.368 0.2066699999999999
505.67 0.21333000000000002
505.973 0.21999999999999975
506.275 0.2066699999999999
506.579 0.25666999999999973
506.881 0.22666999999999993
507.183 0.19999999999999973
507.486 0.2033299999999998
507.788 0.21999999999999975
508.092 0.2233299999999998
508.394 0.22666999999999993
508.696 0.18332999999999977
508.998 0.2533299999999996
509.3 0.2166699999999997
509.605 0.2066699999999999
509.907 0.23333000000000004
510.209 0.2166699999999997
510.511 0.17666999999999966
510.813 0.1866699999999999
511.115 0.18999999999999995
511.419 0.19999999999999973
511.721 0.25666999999999973
512.023 0.2033299999999998
512.325 0.23333000000000004
512.627 0.19333
512.931 0.22666999999999993
513.233 0.2533299999999996
513.535 0.23333000000000004
513.837 0.23666999999999971
514.139 0.23999999999999977
514.441 0.22999999999999998
514.743 0.25666999999999973
515.047 0.2233299999999998
515.349 0.20999999999999996
515.651 0.23666999999999971
515.953 0.23999999999999977
516.254 0.2533299999999996
516.556 0.26666999999999996
516.858 0.29332999999999965
517.16 0.2233299999999998
517.464 0.20999999999999996
517.766 0.23999999999999977
518.068 0.23999999999999977
518.369 0.26332999999999984
518.671 0.24666999999999994
518.973 0.27
519.275 0.2599999999999998
519.576 0.25666999999999973
519.878 0.25
520.182 0.24666999999999994
520.484 0.25666999999999973
520.786 0.25666999999999973
521.087 0.21999999999999975
521.389 0.26666999999999996
521.691 0.21999999999999975
521.992 0.26332999999999984
522.294 0.2533299999999996
522.596 0.2999999999999998
522.897 0.27
523.199 0.24666999999999994
523.501 0.21999999999999975
523.802 0.28667
524.106 0.2799999999999998
524.408 0.29332999999999965
524.709 0.25
525.011 0.27
525.312 0.2599999999999998
525.614 0.31332999999999966
525.915 0.22999999999999998
526.217 0.29000000000000004
526.519 0.25
526.82 0.23333000000000004
527.122 0.28332999999999986
527.423 0.23999999999999977
527.725 0.25
528.026 0.25
528.328 0.27332999999999963
528.629 0.29332999999999965
528.931 0.2599999999999998
529.232 0.27666999999999975
529.533 0.28667
529.835 0.3199999999999994
530.136 0.27332999999999963
530.438 0.3033299999999999
530.739 0.28332999999999986
531.04 0.29332999999999965
531.342 0.3099999999999996
531.643 0.22666999999999993
531.945 0.25666999999999973
532.246 0.27
532.547 0.2799999999999998
532.849 0.27666999999999975
533.15 0.2533299999999996
533.451 0.21999999999999975
533.753 0.27666999999999975
534.054 0.28667
534.355 0.27
534.656 0.29000000000000004
534.958 0.2599999999999998
535.259 0.23333000000000004
535.56 0.29332999999999965
535.861 0.29000000000000004
536.163 0.25
536.464 0.27666999999999975
536.765 0.2533299999999996
537.066 0.24666999999999994
537.367 0.29332999999999965
537.667 0.25666999999999973
537.968 0.27666999999999975
538.269 0.28332999999999986
538.57 0.26332999999999984
538.871 0.2533299999999996
539.172 0.3033299999999999
539.473 0.27666999999999975
539.775 0.24332999999999982
540.076 0.29332999999999965
540.377 0.25666999999999973
540.678 0.25
540.979 0.2799999999999998
541.278 0.28332999999999986
541.579 0.2599999999999998
541.88 0.23999999999999977
542.181 0.27332999999999963
542.482 0.25
542.783 0.2166699999999997
543.084 0.2233299999999998
543.385 0.24666999999999994
543.686 0.26332999999999984
543.985 0.25666999999999973
544.286 0.2533299999999996
544.587 0.2166699999999997
544.888 0.2166699999999997
545.189 0.23666999999999971
545.49 0.22999999999999998
545.79 0.22999999999999998
546.091 0.20999999999999996
546.39 0.23666999999999971
546.691 0.23333000000000004
546.992 0.19666999999999968
547.293 0.23666999999999971
547.594 0.21999999999999975
547.895 0.23666999999999971
548.195 0.23333000000000004
548.494 0.23333000000000004
548.795 0.21333000000000002
549.096 0.21333000000000002
549.397 0.21999999999999975
549.697 0.2166699999999997
549.998 0.20999999999999996
550.297 0.2166699999999997
550.598 0.17666999999999966
550.898 0.1866699999999999
551.199 0.2066699999999999
551.5 0.2166699999999997
551.798 0.16666999999999987
552.099 0.19333
552.4 0.17332999999999998
552.701 0.19333
553.001 0.1866699999999999
553.3 0.17999999999999972
553.6 0.19999999999999973
553.901 0.19666999999999968
554.202 0.19666999999999968
554.502 0.19666999999999968
554.801 0.19333
555.102 0.2033299999999998
555.402 0.18999999999999995
555.703 0.16332999999999975
556.001 0.2033299999999998
556.302 0.15666999999999964
556.602 0.1599999999999997
556.903 0.17666999999999966
557.201 0.15666999999999964
557.502 0.1866699999999999
557.802 0.18999999999999995
558.103 0.19666999999999968
558.403 0.1866699999999999
558.702 0.16999999999999993
559.002 0.16999999999999993
559.303 0.1599999999999997
559.601 0.15666999999999964
559.902 0.10999999999999988
560.202 0.18999999999999995
560.502 0.15332999999999997
560.801 0.15332999999999997
561.101 0.18332999999999977
561.402 0.18332999999999977
561.702 0.18999999999999995
562.0 0.15332999999999997
562.301 0.18999999999999995
562.601 0.15666999999999964
562.899 0.16999999999999993
563.2 0.19999999999999973
563.5 0.18999999999999995
563.8 0.14666999999999986
564.099 0.19333
564.399 0.17332999999999998
564.699 0.1866699999999999
564.997 0.17332999999999998
565.298 0.1599999999999997
565.598 0.15332999999999997
565.896 0.17666999999999966
566.196 0.18332999999999977
566.497 0.17666999999999966
566.795 0.14332999999999974
567.095 0.15666999999999964
567.395 0.16999999999999993
567.693 0.15332999999999997
567.994 0.14666999999999986
568.294 0.15666999999999964
568.592 0.13999999999999968
568.892 0.1599999999999997
569.192 0.17666999999999966
569.49 0.18332999999999977
569.79 0.14332999999999974
570.09 0.13666999999999963
570.389 0.1599999999999997
570.689 0.16999999999999993
570.987 0.13999999999999968
571.287 0.13999999999999968
571.587 0.1599999999999997
571.885 0.16666999999999987
572.185 0.17666999999999966
572.485 0.14666999999999986
572.783 0.16999999999999993
573.083 0.13666999999999963
573.381 0.14666999999999986
573.681 0.13666999999999963
573.981 0.13999999999999968
574.279 0.19666999999999968
574.579 0.12332999999999972
574.877 0.17666999999999966
575.177 0.15332999999999997
575.477 0.14666999999999986
575.774 0.15332999999999997
576.074 0.15666999999999964
576.372 0.1599999999999997
576.672 0.16999999999999993
576.972 0.15332999999999997
577.27 0.2033299999999998
577.57 0.15332999999999997
577.867 0.13999999999999968
578.167 0.18332999999999977
578.465 0.16666999999999987
578.765 0.16332999999999975
579.063 0.18332999999999977
579.363 0.17332999999999998
579.662 0.17332999999999998
579.96 0.16666999999999987
580.26 0.16999999999999993
580.558 0.16666999999999987
580.857 0.2066699999999999
581.155 0.15666999999999964
581.455 0.14666999999999986
581.752 0.17332999999999998
582.052 0.16332999999999975
582.35 0.17666999999999966
582.65 0.15666999999999964
582.947 0.16666999999999987
583.247 0.1866699999999999
583.547 0.15666999999999964
583.844 0.18332999999999977
584.144 0.16332999999999975
584.441 0.16999999999999993
584.741 0.16666999999999987
585.039 0.1499999999999999
585.338 0.18332999999999977
585.636 0.16332999999999975
585.935 0.19999999999999973
586.233 0.16332999999999975
586.533 0.16666999999999987
586.83 0.15332999999999997
587.13 0.19333
587.427 0.16332999999999975
587.725 0.18332999999999977
588.024 0.1499999999999999
588.322 0.2066699999999999
588.621 0.1599999999999997
588.919 0.16999999999999993
589.218 0.16999999999999993
589.516 0.16332999999999975
589.815 0.2033299999999998
590.112 0.19333
590.412 0.1599999999999997
590.709 0.19333
591.009 0.18999999999999995
591.306 0.17666999999999966
591.603 0.19333
591.903 0.21333000000000002
592.2 0.2066699999999999
592.5 0.18999999999999995
592.797 0.19666999999999968
593.096 0.18332999999999977
593.393 0.15666999999999964
593.691 0.1866699999999999
593.99 0.19333
594.287 0.2033299999999998
594.587 0.22666999999999993
594.884 0.17666999999999966
595.183 0.17999999999999972
595.481 0.2033299999999998
595.778 0.18332999999999977
596.077 0.19666999999999968
596.374 0.1866699999999999
596.673 0.1599999999999997
596.971 0.24332999999999982
597.268 0.1866699999999999
597.567 0.17999999999999972
597.864 0.21999999999999975
598.161 0.20999999999999996
598.461 0.20999999999999996
598.758 0.20999999999999996
599.057 0.2166699999999997
599.354 0.17999999999999972
599.651 0.2033299999999998
599.95 0.18332999999999977
600.247 0.22666999999999993
600.544 0.23333000000000004
600.843 0.23333000000000004
601.141 0.19333
601.438 0.2066699999999999
601.737 0.19666999999999968
602.034 0.2066699999999999
602.333 0.22666999999999993
602.63 0.19999999999999973
602.927 0.18332999999999977
603.226 0.19999999999999973
603.523 0.22666999999999993
603.82 0.20999999999999996
604.117 0.24666999999999994
604.416 0.20999999999999996
604.713 0.19666999999999968
605.01 0.19333
605.308 0.21999999999999975
605.605 0.19999999999999973
605.902 0.19333
606.201 0.21333000000000002
606.498 0.19999999999999973
606.795 0.19333
607.094 0.17666999999999966
607.391 0.20999999999999996
607.688 0.18999999999999995
607.984 0.16666999999999987
608.283 0.18999999999999995
608.58 0.2166699999999997
608.877 0.19666999999999968
609.176 0.19666999999999968
609.473 0.17999999999999972
609.769 0.19666999999999968
610.066 0.2166699999999997
610.365 0.18999999999999995
610.662 0.15332999999999997
610.958 0.18999999999999995
611.255 0.16666999999999987
611.554 0.17999999999999972
611.851 0.1866699999999999
612.147 0.1599999999999997
612.444 0.21999999999999975
612.743 0.17332999999999998
613.039 0.17666999999999966
613.336 0.1866699999999999
613.633 0.17332999999999998
613.931 0.19666999999999968
614.228 0.16332999999999975
614.525 0.16999999999999993
614.821 0.17666999999999966
615.12 0.19999999999999973
615.416 0.13332999999999995
615.713 0.21333000000000002
616.01 0.15332999999999997
616.306 0.16666999999999987
616.605 0.1866699999999999
616.901 0.17666999999999966
617.198 0.17332999999999998
617.494 0.18999999999999995
617.791 0.16332999999999975
618.089 0.1599999999999997
618.386 0.2066699999999999
618.682 0.21999999999999975
618.979 0.13999999999999968
619.275 0.17666999999999966
619.574 0.1499999999999999
619.87 0.17666999999999966
620.167 0.17332999999999998
620.463 0.16999999999999993
620.76 0.16666999999999987
621.056 0.17666999999999966
621.354 0.19666999999999968
621.651 0.1599999999999997
621.947 0.15666999999999964
622.244 0.14332999999999974
622.54 0.15666999999999964
622.836 0.14666999999999986
623.135 0.16332999999999975
623.431 0.18332999999999977
623.727 0.15666999999999964
624.024 0.15666999999999964
624.32 0.17666999999999966
624.616 0.1599999999999997
624.913 0.19333
625.209 0.1866699999999999
625.507 0.15332999999999997
625.803 0.15666999999999964
626.1 0.19999999999999973
626.396 0.16999999999999993
626.692 0.16666999999999987
626.988 0.19666999999999968
627.284 0.1866699999999999
627.581 0.18999999999999995
627.879 0.14666999999999986
628.175 0.17999999999999972
628.471 0.16999999999999993
628.767 0.17332999999999998
629.064 0.16999999999999993
629.36 0.16999999999999993
629.656 0.15332999999999997
629.952 0.17666999999999966
630.248 0.1499999999999999
630.544 0.14666999999999986
630.84 0.1599999999999997
631.136 0.1866699999999999
631.434 0.18332999999999977
631.731 0.15666999999999964
632.027 0.16999999999999993
632.323 0.16332999999999975
632.619 0.1866699999999999
632.915 0.2066699999999999
633.211 0.18332999999999977
633.507 0.16999999999999993
633.803 0.1599999999999997
634.099 0.1866699999999999
634.395 0.19999999999999973
634.691 0.15666999999999964
634.987 0.21999999999999975
635.283 0.18999999999999995
635.578 0.15666999999999964
635.874 0.17666999999999966
636.17 0.18332999999999977
636.466 0.16666999999999987
636.762 0.19999999999999973
637.058 0.2033299999999998
637.354 0.1866699999999999
637.65 0.18332999999999977
637.946 0.2066699999999999
638.242 0.2233299999999998
638.537 0.17666999999999966
638.833 0.16666999999999987
639.129 0.21333000000000002
639.425 0.17666999999999966
639.721 0.1866699999999999
640.016 0.17332999999999998
640.312 0.1866699999999999
640.608 0.19999999999999973
640.904 0.21333000000000002
641.2 0.24332999999999982
641.495 0.2166699999999997
641.791 0.17332999999999998
642.087 0.1866699999999999
642.382 0.1866699999999999
642.678 0.23666999999999971
642.974 0.2166699999999997
643.27 0.22666999999999993
643.565 0.23999999999999977
643.861 0.2033299999999998
644.157 0.19333
644.452 0.2033299999999998
644.748 0.24332999999999982
645.043 0.21333000000000002
645.339 0.18332999999999977
645.635 0.22666999999999993
645.928 0.21999999999999975
646.224 0.20999999999999996
646.519 0.20999999999999996
646.815 0.23666999999999971
647.111 0.21999999999999975
647.406 0.22999999999999998
647.702 0.20999999999999996
647.997 0.25
648.293 0.19999999999999973
648.588 0.2233299999999998
648.884 0.2166699999999997
649.179 0.22999999999999998
649.473 0.2033299999999998
649.768 0.2033299999999998
650.064 0.2233299999999998
650.359 0.20999999999999996
650.655 0.21333000000000002
650.95 0.21333000000000002
651.245 0.19666999999999968
651.541 0.2033299999999998
651.836 0.19999999999999973
652.13 0.19333
652.425 0.2233299999999998
652.721 0.18999999999999995
653.016 0.21333000000000002
653.311 0.19333
653.607 0.19666999999999968
653.902 0.1599999999999997
654.195 0.17999999999999972
654.491 0.18332999999999977
654.786 0.2066699999999999
655.081 0.17999999999999972
655.376 0.1866699999999999
655.672 0.1866699999999999
655.965 0.15666999999999964
656.26 0.18332999999999977
656.556 0.13999999999999968
656.851 0.1866699999999999
657.146 0.14332999999999974
657.441 0.18999999999999995
657.734 0.19666999999999968
658.03 0.16999999999999993
658.325 0.18332999999999977
658.62 0.18332999999999977
658.915 0.1866699999999999
659.208 0.1299999999999999
659.504 0.16666999999999987
659.799 0.1866699999999999
660.094 0.20999999999999996
660.389 0.15666999999999964
660.682 0.15332999999999997
660.977 0.16666999999999987
661.272 0.17332999999999998
661.567 0.16999999999999993
661.863 0.1599999999999997
662.156 0.17666999999999966
662.451 0.1866699999999999
662.746 0.18332999999999977
663.041 0.1299999999999999
663.334 0.1499999999999999
663.629 0.15332999999999997
663.924 0.14332999999999974
664.219 0.15666999999999964
664.514 0.19333
664.807 0.15332999999999997
665.102 0.14332999999999974
665.397 0.1499999999999999
665.69 0.16332999999999975
665.985 0.13332999999999995
666.28 0.16332999999999975
666.575 0.14666999999999986
666.867 0.16666999999999987
667.162 0.16332999999999975
667.457 0.15666999999999964
667.752 0.19666999999999968
668.045 0.16999999999999993
668.34 0.16999999999999993
668.635 0.15332999999999997
668.928 0.1866699999999999
669.222 0.13666999999999963
669.517 0.14332999999999974
669.812 0.16999999999999993
670.105 0.1599999999999997
670.4 0.1299999999999999
670.695 0.12332999999999972
670.987 0.16999999999999993
671.282 0.17666999999999966
671.577 0.13666999999999963
671.87 0.14332999999999974
672.164 0.15666999999999964
672.459 0.13332999999999995
672.752 0.16332999999999975
673.047 0.1299999999999999
673.341 0.15666999999999964
673.634 0.15332999999999997
673.929 0.1599999999999997
674.223 0.13332999999999995
674.516 0.16332999999999975
674.811 0.17999999999999972
675.105 0.15666999999999964
675.398 0.17666999999999966
675.693 0.12332999999999972
