# Created: 2019-11-28 11:43:36.923830
# rshift intensity
55.3072 0.07499999999999996
55.6331 0.06667000000000001
55.9568 0.06832999999999978
56.2826 0.061670000000000114
56.6085 0.05999999999999983
56.9343 0.07333000000000012
57.2601 0.05832999999999999
57.5859 0.056669999999999776
57.9117 0.05832999999999999
58.2374 0.061670000000000114
58.5632 0.06667000000000001
58.8889 0.05832999999999999
59.2147 0.05999999999999983
59.5382 0.05999999999999983
59.864 0.0533300000000001
60.1897 0.06500000000000017
60.5154 0.06500000000000017
60.841 0.06832999999999978
61.1667 0.061670000000000114
61.4924 0.05499999999999994
61.818 0.056669999999999776
62.1437 0.06667000000000001
62.4671 0.03333000000000008
62.7927 0.056669999999999776
63.1183 0.038329999999999975
63.4439 0.056669999999999776
63.7695 0.0533300000000001
64.0951 0.06832999999999978
64.4206 0.038329999999999975
64.744 0.05999999999999983
65.0696 0.061670000000000114
65.3951 0.028329999999999966
65.7206 0.06500000000000017
66.0461 0.06667000000000001
66.3716 0.06667000000000001
66.6971 0.05166999999999988
67.0204 0.06332999999999989
67.3459 0.05999999999999983
67.6713 0.056669999999999776
67.9967 0.05499999999999994
68.3222 0.06500000000000017
68.6476 0.05499999999999994
68.9708 0.0833299999999999
69.2962 0.06667000000000001
69.6216 0.05832999999999999
69.9469 0.0716699999999999
70.2723 0.05999999999999983
70.5976 0.07333000000000012
70.9208 0.06500000000000017
71.2461 0.061670000000000114
71.5715 0.09333000000000014
71.8968 0.06832999999999978
72.222 0.05832999999999999
72.5452 0.0533300000000001
72.8704 0.08500000000000019
73.1957 0.0833299999999999
73.5209 0.09166999999999992
73.8462 0.1100000000000001
74.1692 0.09833000000000003
74.4944 0.09499999999999997
74.8196 0.10499999999999976
75.1448 0.1100000000000001
75.4678 0.10667000000000004
75.793 0.12667000000000006
76.1182 0.13000000000000012
76.4433 0.12332999999999994
76.7684 0.17500000000000004
77.0914 0.13833000000000006
77.4165 0.13666999999999985
77.7416 0.1666700000000001
78.0667 0.1666700000000001
78.3896 0.1666700000000001
78.7147 0.19500000000000006
79.0397 0.1966699999999999
79.3648 0.19500000000000006
79.6876 0.17999999999999994
80.0127 0.1666700000000001
80.3377 0.17167
80.6627 0.1533300000000002
80.9855 0.16832999999999987
81.3105 0.17666999999999988
81.6354 0.15000000000000013
81.9604 0.11999999999999988
82.2832 0.11999999999999988
82.6081 0.10499999999999976
82.933 0.13166999999999995
83.2558 0.06500000000000017
83.5807 0.10667000000000004
83.9055 0.0766699999999998
84.2304 0.06832999999999978
84.5531 0.061670000000000114
84.878 0.061670000000000114
85.2028 0.05832999999999999
85.5255 0.02666999999999997
85.8503 0.05499999999999994
86.1751 0.05999999999999983
86.4978 0.04832999999999976
86.8225 0.050000000000000044
87.1473 0.04332999999999987
87.4721 0.04500000000000015
87.7947 0.039999999999999813
88.1194 0.04500000000000015
88.4441 0.04666999999999999
88.7667 0.04332999999999987
89.0914 0.018329999999999957
89.4161 0.030000000000000027
89.7386 0.04500000000000015
90.0633 0.02666999999999997
90.3879 0.050000000000000044
90.7104 0.02499999999999991
91.0351 0.05999999999999983
91.3597 0.05166999999999988
91.6822 0.03666999999999976
92.0068 0.03499999999999992
92.3314 0.04332999999999987
92.6538 0.05166999999999988
92.9784 0.041670000000000096
93.3029 0.030000000000000027
93.6253 0.0533300000000001
93.9499 0.04332999999999987
94.2722 0.031669999999999865
94.5967 0.04500000000000015
94.9212 0.038329999999999975
95.2436 0.020000000000000018
95.5681 0.03499999999999992
95.8925 0.03499999999999992
96.2149 0.020000000000000018
96.5393 0.028329999999999966
96.8616 0.031669999999999865
97.186 0.020000000000000018
97.5104 0.03333000000000008
97.8327 0.038329999999999975
98.1571 0.028329999999999966
98.4814 0.03499999999999992
98.8037 0.018329999999999957
99.128 0.028329999999999966
99.4502 0.02666999999999997
99.7746 0.030000000000000027
100.099 0.03499999999999992
100.421 0.04332999999999987
100.745 0.03333000000000008
101.067 0.018329999999999957
101.392 0.041670000000000096
101.714 0.030000000000000027
102.038 0.04500000000000015
102.362 0.050000000000000044
102.684 0.023330000000000073
103.009 0.021670000000000078
103.331 0.02666999999999997
103.655 0.031669999999999865
103.977 0.030000000000000027
104.301 0.02499999999999991
104.625 0.04666999999999999
104.947 0.03333000000000008
105.271 0.04332999999999987
105.593 0.038329999999999975
105.918 0.04500000000000015
106.24 0.02666999999999997
106.564 0.04832999999999976
106.886 0.038329999999999975
107.21 0.056669999999999776
107.534 0.05166999999999988
107.856 0.05999999999999983
108.18 0.050000000000000044
108.502 0.038329999999999975
108.826 0.056669999999999776
109.147 0.05832999999999999
109.471 0.03499999999999992
109.793 0.061670000000000114
110.117 0.04832999999999976
110.439 0.04500000000000015
110.763 0.05499999999999994
111.085 0.05166999999999988
111.409 0.07499999999999996
111.731 0.031669999999999865
112.054 0.061670000000000114
112.376 0.04832999999999976
112.7 0.039999999999999813
113.022 0.04500000000000015
113.346 0.04332999999999987
113.667 0.031669999999999865
113.991 0.03333000000000008
114.313 0.05166999999999988
114.637 0.02666999999999997
114.958 0.031669999999999865
115.282 0.056669999999999776
115.604 0.030000000000000027
115.928 0.04832999999999976
116.249 0.06332999999999989
116.573 0.05832999999999999
116.895 0.04500000000000015
117.216 0.05499999999999994
117.54 0.05999999999999983
117.862 0.04666999999999999
118.185 0.039999999999999813
118.507 0.039999999999999813
118.83 0.05999999999999983
119.152 0.04500000000000015
119.476 0.0533300000000001
119.797 0.013330000000000064
120.121 0.04500000000000015
120.442 0.041670000000000096
120.764 0.05166999999999988
121.087 0.03666999999999976
121.409 0.06667000000000001
121.732 0.06667000000000001
122.054 0.04666999999999999
122.377 0.03499999999999992
122.699 0.04332999999999987
123.02 0.06332999999999989
123.344 0.0533300000000001
123.665 0.05166999999999988
123.988 0.04666999999999999
124.31 0.028329999999999966
124.631 0.03499999999999992
124.955 0.07333000000000012
125.276 0.050000000000000044
125.599 0.04332999999999987
125.921 0.021670000000000078
126.242 0.050000000000000044
126.565 0.04500000000000015
126.887 0.0533300000000001
127.21 0.03499999999999992
127.531 0.05999999999999983
127.852 0.04666999999999999
128.176 0.05832999999999999
128.497 0.04500000000000015
128.82 0.06332999999999989
129.141 0.05499999999999994
129.463 0.039999999999999813
129.786 0.039999999999999813
130.107 0.04832999999999976
130.428 0.03499999999999992
130.751 0.023330000000000073
131.073 0.020000000000000018
131.394 0.05166999999999988
131.717 0.038329999999999975
132.038 0.03666999999999976
132.361 0.031669999999999865
132.682 0.031669999999999865
133.003 0.03333000000000008
133.326 0.04500000000000015
133.647 0.020000000000000018
133.969 0.020000000000000018
134.292 0.03499999999999992
134.613 0.038329999999999975
134.934 0.02666999999999997
135.257 0.028329999999999966
135.578 0.023330000000000073
135.899 0.03499999999999992
136.22 0.041670000000000096
136.543 0.02499999999999991
136.864 0.038329999999999975
137.184 0.039999999999999813
137.507 0.018329999999999957
137.828 0.03666999999999976
138.149 0.04832999999999976
138.472 0.03499999999999992
138.793 0.031669999999999865
139.114 0.04666999999999999
139.437 0.030000000000000027
139.758 0.028329999999999966
140.078 0.013330000000000064
140.399 0.038329999999999975
140.722 0.030000000000000027
141.043 0.023330000000000073
141.364 0.031669999999999865
141.687 0.02499999999999991
142.007 0.038329999999999975
142.328 0.018329999999999957
142.649 0.038329999999999975
142.972 0.04666999999999999
143.292 0.04832999999999976
143.613 0.031669999999999865
143.934 0.013330000000000064
144.256 0.016669999999999963
144.577 0.028329999999999966
144.898 0.02666999999999997
145.218 0.039999999999999813
145.541 0.041670000000000096
145.862 0.030000000000000027
146.182 0.014999999999999902
146.503 0.03333000000000008
146.826 0.04332999999999987
147.146 0.02499999999999991
147.467 0.014999999999999902
147.787 0.03499999999999992
148.11 0.04332999999999987
148.43 0.039999999999999813
148.751 0.038329999999999975
149.071 0.03499999999999992
149.392 0.018329999999999957
149.715 0.039999999999999813
150.035 0.031669999999999865
150.355 0.03333000000000008
150.676 0.018329999999999957
150.996 0.03666999999999976
151.319 0.02666999999999997
151.639 0.010000000000000009
151.96 0.03333000000000008
152.28 0.02499999999999991
152.6 0.04500000000000015
152.923 0.02499999999999991
153.243 0.018329999999999957
153.564 0.02666999999999997
153.884 0.050000000000000044
154.204 0.03666999999999976
154.527 0.05166999999999988
154.847 0.039999999999999813
155.167 0.028329999999999966
155.488 0.02666999999999997
155.808 0.023330000000000073
156.128 0.014999999999999902
156.45 0.030000000000000027
156.771 0.02666999999999997
157.091 0.02666999999999997
157.411 0.03666999999999976
157.731 0.021670000000000078
158.052 0.018329999999999957
158.372 0.023330000000000073
158.694 0.0
159.014 0.021670000000000078
159.334 0.018329999999999957
159.654 0.039999999999999813
159.975 0.004999999999999893
160.295 0.014999999999999902
160.615 0.02666999999999997
160.937 0.03666999999999976
161.257 0.02499999999999991
161.577 0.03499999999999992
161.897 0.04332999999999987
162.217 0.03499999999999992
162.537 0.021670000000000078
162.857 0.02499999999999991
163.177 0.013330000000000064
163.499 0.016669999999999963
163.819 0.03666999999999976
164.139 0.021670000000000078
164.459 0.02666999999999997
164.779 0.041670000000000096
165.099 0.030000000000000027
165.419 0.031669999999999865
165.739 0.031669999999999865
166.059 0.028329999999999966
166.379 0.020000000000000018
166.699 0.041670000000000096
167.021 0.023330000000000073
167.341 0.02499999999999991
167.661 0.02499999999999991
167.98 0.02499999999999991
168.3 0.039999999999999813
168.62 0.039999999999999813
168.94 0.04332999999999987
169.26 0.031669999999999865
169.58 0.006669999999999954
169.899 0.028329999999999966
170.219 0.028329999999999966
170.539 0.028329999999999966
170.859 0.03333000000000008
171.178 0.020000000000000018
171.498 0.028329999999999966
171.818 0.030000000000000027
172.137 0.03666999999999976
172.459 0.013330000000000064
172.779 0.020000000000000018
173.099 0.020000000000000018
173.418 0.021670000000000078
173.738 0.03333000000000008
174.058 0.020000000000000018
174.377 0.039999999999999813
174.697 0.028329999999999966
175.016 0.003330000000000055
175.336 0.030000000000000027
175.656 0.018329999999999957
175.975 0.004999999999999893
176.295 0.020000000000000018
176.614 0.02499999999999991
176.934 0.004999999999999893
177.253 0.03666999999999976
177.573 0.03333000000000008
177.892 0.021670000000000078
178.212 0.018329999999999957
178.531 0.018329999999999957
178.851 0.020000000000000018
179.17 0.050000000000000044
179.49 0.03666999999999976
179.809 0.023330000000000073
180.129 0.03333000000000008
180.448 0.02666999999999997
180.767 0.023330000000000073
181.087 0.023330000000000073
181.406 0.0
181.726 0.03499999999999992
182.045 0.028329999999999966
182.362 0.03499999999999992
182.682 0.016669999999999963
183.001 0.018329999999999957
183.32 0.02499999999999991
183.64 0.004999999999999893
183.959 0.021670000000000078
184.278 0.03499999999999992
184.597 0.041670000000000096
184.917 0.030000000000000027
185.236 0.016669999999999963
185.555 0.010000000000000009
185.874 0.03333000000000008
186.194 0.02499999999999991
186.513 0.028329999999999966
186.832 0.02499999999999991
187.151 0.020000000000000018
187.47 0.021670000000000078
187.787 0.016669999999999963
188.107 0.014999999999999902
188.426 0.038329999999999975
188.745 0.010000000000000009
189.064 0.02499999999999991
189.383 0.021670000000000078
189.702 0.039999999999999813
190.021 0.016669999999999963
190.34 0.030000000000000027
190.66 0.02666999999999997
190.976 0.021670000000000078
191.296 0.031669999999999865
191.615 0.016669999999999963
191.934 0.03666999999999976
192.253 0.016669999999999963
192.572 0.041670000000000096
192.891 0.006669999999999954
193.21 0.041670000000000096
193.529 0.014999999999999902
193.845 0.02499999999999991
194.164 0.016669999999999963
194.483 0.016669999999999963
194.802 0.006669999999999954
195.121 0.030000000000000027
195.44 0.014999999999999902
195.759 0.030000000000000027
196.076 0.031669999999999865
196.395 0.023330000000000073
196.713 0.04666999999999999
197.032 0.04332999999999987
197.351 0.023330000000000073
197.67 0.028329999999999966
197.987 0.014999999999999902
198.305 0.02499999999999991
198.624 0.023330000000000073
198.943 0.05832999999999999
199.262 0.03333000000000008
199.581 0.02666999999999997
199.897 0.02499999999999991
200.216 0.028329999999999966
200.535 0.04332999999999987
200.853 0.038329999999999975
201.172 0.03333000000000008
201.491 0.05499999999999994
201.807 0.039999999999999813
202.126 0.02666999999999997
202.445 0.028329999999999966
202.763 0.030000000000000027
203.082 0.021670000000000078
203.399 0.039999999999999813
203.717 0.023330000000000073
204.036 0.018329999999999957
204.354 0.020000000000000018
204.673 0.04666999999999999
204.989 0.030000000000000027
205.308 0.038329999999999975
205.627 0.031669999999999865
205.945 0.023330000000000073
206.262 0.04332999999999987
206.58 0.02666999999999997
206.899 0.021670000000000078
207.217 0.041670000000000096
207.533 0.020000000000000018
207.852 0.023330000000000073
208.17 0.023330000000000073
208.489 0.031669999999999865
208.805 0.021670000000000078
209.124 0.020000000000000018
209.442 0.038329999999999975
209.761 0.03666999999999976
210.077 0.050000000000000044
210.395 0.04332999999999987
210.714 0.03499999999999992
211.032 0.02499999999999991
211.348 0.03499999999999992
211.667 0.038329999999999975
211.985 0.023330000000000073
212.303 0.038329999999999975
212.619 0.028329999999999966
212.938 0.03333000000000008
213.256 0.03499999999999992
213.572 0.031669999999999865
213.89 0.04332999999999987
214.209 0.023330000000000073
214.527 0.018329999999999957
214.843 0.013330000000000064
215.161 0.020000000000000018
215.48 0.006669999999999954
215.796 0.03666999999999976
216.114 0.03499999999999992
216.432 0.01167000000000007
216.748 0.031669999999999865
217.066 0.050000000000000044
217.384 0.020000000000000018
217.703 0.050000000000000044
218.019 0.023330000000000073
218.337 0.031669999999999865
218.655 0.030000000000000027
218.971 0.028329999999999966
219.289 0.020000000000000018
219.607 0.038329999999999975
219.923 0.04666999999999999
220.241 0.03333000000000008
220.559 0.04332999999999987
220.875 0.028329999999999966
221.193 0.028329999999999966
221.511 0.050000000000000044
221.827 0.03666999999999976
222.145 0.04832999999999976
222.461 0.050000000000000044
222.779 0.0533300000000001
223.097 0.04666999999999999
223.413 0.039999999999999813
223.731 0.018329999999999957
224.048 0.0533300000000001
224.364 0.05166999999999988
224.682 0.038329999999999975
225.0 0.056669999999999776
225.316 0.03666999999999976
225.634 0.06667000000000001
225.949 0.04500000000000015
226.267 0.05166999999999988
226.585 0.056669999999999776
226.901 0.03333000000000008
227.219 0.06332999999999989
227.534 0.03499999999999992
227.852 0.03499999999999992
228.17 0.03499999999999992
228.486 0.05999999999999983
228.803 0.07499999999999996
229.119 0.05832999999999999
229.437 0.039999999999999813
229.755 0.039999999999999813
230.07 0.04666999999999999
230.388 0.05166999999999988
230.703 0.05999999999999983
231.021 0.050000000000000044
231.337 0.05166999999999988
231.654 0.07000000000000006
231.972 0.06667000000000001
232.288 0.0716699999999999
232.605 0.05832999999999999
232.921 0.07000000000000006
233.238 0.06332999999999989
233.554 0.04500000000000015
233.871 0.05832999999999999
234.189 0.05999999999999983
234.504 0.061670000000000114
234.822 0.04500000000000015
235.137 0.056669999999999776
235.455 0.038329999999999975
235.77 0.039999999999999813
236.088 0.061670000000000114
236.403 0.02499999999999991
236.721 0.0533300000000001
237.036 0.031669999999999865
237.354 0.05999999999999983
237.669 0.05832999999999999
237.986 0.038329999999999975
238.302 0.041670000000000096
238.619 0.04832999999999976
238.935 0.06667000000000001
239.252 0.04666999999999999
239.567 0.06500000000000017
239.885 0.05999999999999983
240.202 0.041670000000000096
240.517 0.03333000000000008
240.833 0.04666999999999999
241.15 0.04832999999999976
241.465 0.050000000000000044
241.782 0.05499999999999994
242.098 0.04332999999999987
242.415 0.02499999999999991
242.73 0.02499999999999991
243.047 0.023330000000000073
243.363 0.028329999999999966
243.68 0.028329999999999966
243.995 0.038329999999999975
244.312 0.04500000000000015
244.627 0.031669999999999865
244.945 0.05499999999999994
245.26 0.04332999999999987
245.577 0.04500000000000015
245.892 0.021670000000000078
246.209 0.03333000000000008
246.524 0.030000000000000027
246.839 0.03666999999999976
247.156 0.014999999999999902
247.471 0.030000000000000027
247.788 0.039999999999999813
248.103 0.041670000000000096
248.421 0.03499999999999992
248.735 0.031669999999999865
249.053 0.018329999999999957
249.368 0.04500000000000015
249.682 0.03499999999999992
249.999 0.041670000000000096
250.314 0.016669999999999963
250.631 0.030000000000000027
250.946 0.04666999999999999
251.261 0.013330000000000064
251.578 0.03333000000000008
251.893 0.021670000000000078
252.21 0.014999999999999902
252.525 0.02499999999999991
252.842 0.023330000000000073
253.157 0.031669999999999865
253.472 0.018329999999999957
253.788 0.023330000000000073
254.103 0.02499999999999991
254.418 0.04832999999999976
254.735 0.016669999999999963
255.05 0.039999999999999813
255.367 0.030000000000000027
255.681 0.04332999999999987
255.996 0.04500000000000015
256.313 0.014999999999999902
256.628 0.03333000000000008
256.942 0.023330000000000073
257.259 0.021670000000000078
257.574 0.023330000000000073
257.89 0.03499999999999992
258.205 0.030000000000000027
258.52 0.03499999999999992
258.837 0.031669999999999865
259.151 0.028329999999999966
259.466 0.014999999999999902
259.782 0.038329999999999975
260.097 0.020000000000000018
260.412 0.04500000000000015
260.728 0.020000000000000018
261.043 0.041670000000000096
261.357 0.038329999999999975
261.674 0.039999999999999813
261.989 0.031669999999999865
262.303 0.030000000000000027
262.62 0.039999999999999813
262.934 0.028329999999999966
263.249 0.0533300000000001
263.565 0.039999999999999813
263.88 0.03499999999999992
264.194 0.023330000000000073
264.511 0.04666999999999999
264.825 0.05166999999999988
265.14 0.028329999999999966
265.454 0.023330000000000073
265.771 0.05499999999999994
266.085 0.06332999999999989
266.399 0.03666999999999976
266.716 0.04832999999999976
267.03 0.041670000000000096
267.344 0.038329999999999975
267.659 0.031669999999999865
267.975 0.07499999999999996
268.29 0.056669999999999776
268.604 0.02499999999999991
268.92 0.056669999999999776
269.235 0.05166999999999988
269.549 0.03499999999999992
269.863 0.06500000000000017
270.179 0.04832999999999976
270.494 0.056669999999999776
270.808 0.039999999999999813
271.122 0.04332999999999987
271.438 0.04832999999999976
271.753 0.041670000000000096
272.067 0.039999999999999813
272.381 0.05832999999999999
272.697 0.04666999999999999
273.011 0.05832999999999999
273.326 0.050000000000000044
273.64 0.023330000000000073
273.956 0.04666999999999999
274.27 0.050000000000000044
274.584 0.04332999999999987
274.898 0.04500000000000015
275.212 0.04500000000000015
275.528 0.04332999999999987
275.843 0.04500000000000015
276.157 0.06832999999999978
276.471 0.03499999999999992
276.787 0.02499999999999991
277.101 0.04832999999999976
277.415 0.038329999999999975
277.729 0.0533300000000001
278.043 0.06500000000000017
278.359 0.04666999999999999
278.673 0.05499999999999994
278.987 0.031669999999999865
279.301 0.04500000000000015
279.615 0.04332999999999987
279.929 0.03499999999999992
280.245 0.05999999999999983
280.558 0.050000000000000044
280.872 0.03499999999999992
281.186 0.056669999999999776
281.5 0.06667000000000001
281.814 0.0533300000000001
282.13 0.06667000000000001
282.444 0.0533300000000001
282.758 0.06500000000000017
283.071 0.04500000000000015
283.385 0.06500000000000017
283.699 0.05499999999999994
284.015 0.05499999999999994
284.329 0.05166999999999988
284.642 0.05832999999999999
284.956 0.02666999999999997
285.27 0.04332999999999987
285.584 0.056669999999999776
285.897 0.0533300000000001
286.213 0.02666999999999997
286.527 0.041670000000000096
286.841 0.0716699999999999
287.154 0.0766699999999998
287.468 0.041670000000000096
287.782 0.04332999999999987
288.095 0.06332999999999989
288.409 0.039999999999999813
288.722 0.05166999999999988
289.038 0.038329999999999975
289.352 0.041670000000000096
289.665 0.038329999999999975
289.979 0.050000000000000044
290.293 0.03499999999999992
290.606 0.0533300000000001
290.92 0.0833299999999999
291.233 0.07333000000000012
291.547 0.06832999999999978
291.86 0.07333000000000012
292.176 0.04500000000000015
292.489 0.03666999999999976
292.803 0.056669999999999776
293.116 0.061670000000000114
293.43 0.03666999999999976
293.743 0.0766699999999998
294.057 0.056669999999999776
294.37 0.041670000000000096
294.683 0.05166999999999988
294.997 0.06500000000000017
295.31 0.05499999999999994
295.624 0.05166999999999988
295.937 0.05499999999999994
296.25 0.0533300000000001
296.564 0.061670000000000114
296.877 0.0766699999999998
297.19 0.0533300000000001
297.504 0.04666999999999999
297.819 0.050000000000000044
298.133 0.05832999999999999
298.446 0.03499999999999992
298.759 0.05999999999999983
299.072 0.05832999999999999
299.386 0.06332999999999989
299.699 0.05999999999999983
300.012 0.0533300000000001
300.325 0.06667000000000001
300.639 0.05499999999999994
300.952 0.06832999999999978
301.265 0.06332999999999989
301.578 0.08667000000000002
301.891 0.07333000000000012
302.205 0.04832999999999976
302.518 0.041670000000000096
302.831 0.03666999999999976
303.144 0.09333000000000014
303.457 0.050000000000000044
303.77 0.056669999999999776
304.083 0.05499999999999994
304.396 0.0716699999999999
304.709 0.08167000000000013
305.023 0.050000000000000044
305.336 0.050000000000000044
305.649 0.06667000000000001
305.962 0.041670000000000096
306.273 0.0766699999999998
306.586 0.06832999999999978
306.899 0.07999999999999985
307.212 0.06832999999999978
307.525 0.06667000000000001
307.838 0.05999999999999983
308.151 0.056669999999999776
308.464 0.0766699999999998
308.777 0.06332999999999989
309.089 0.08667000000000002
309.402 0.04832999999999976
309.715 0.05999999999999983
310.028 0.07833000000000001
310.341 0.06500000000000017
310.654 0.07499999999999996
310.967 0.05832999999999999
311.28 0.05999999999999983
311.593 0.05999999999999983
311.903 0.07000000000000006
312.216 0.05999999999999983
312.529 0.050000000000000044
312.842 0.06832999999999978
313.155 0.06500000000000017
313.467 0.09000000000000008
313.78 0.08667000000000002
314.093 0.0716699999999999
314.406 0.0833299999999999
314.718 0.07000000000000006
315.029 0.08667000000000002
315.342 0.09999999999999987
315.654 0.05999999999999983
315.967 0.09333000000000014
316.28 0.09499999999999997
316.593 0.07833000000000001
316.905 0.08500000000000019
317.218 0.10332999999999992
317.531 0.0883299999999998
317.841 0.08500000000000019
318.154 0.08167000000000013
318.466 0.05832999999999999
318.779 0.10832999999999982
319.092 0.07833000000000001
319.404 0.09166999999999992
319.717 0.0766699999999998
320.027 0.09499999999999997
320.34 0.09000000000000008
320.652 0.0833299999999999
320.965 0.10832999999999982
321.277 0.08500000000000019
321.59 0.10167000000000015
321.9 0.07000000000000006
322.213 0.09333000000000014
322.525 0.09499999999999997
322.838 0.09166999999999992
323.15 0.10667000000000004
323.463 0.10167000000000015
323.773 0.11999999999999988
324.085 0.09499999999999997
324.398 0.11333000000000015
324.71 0.08500000000000019
325.023 0.0883299999999998
325.333 0.08500000000000019
325.645 0.12499999999999978
325.958 0.11333000000000015
326.27 0.0883299999999998
326.582 0.0833299999999999
326.893 0.1100000000000001
327.205 0.07999999999999985
327.517 0.1100000000000001
327.83 0.10332999999999992
328.142 0.09333000000000014
328.452 0.09999999999999987
328.764 0.11999999999999988
329.077 0.10667000000000004
329.389 0.10167000000000015
329.701 0.09333000000000014
330.011 0.11999999999999988
330.323 0.10167000000000015
330.636 0.09833000000000003
330.948 0.1100000000000001
331.258 0.10499999999999976
331.57 0.0833299999999999
331.882 0.10499999999999976
332.194 0.11666999999999983
332.504 0.10499999999999976
332.817 0.135
333.129 0.12499999999999978
333.441 0.11666999999999983
333.751 0.12167000000000017
334.063 0.12667000000000006
334.375 0.11833000000000005
334.685 0.11833000000000005
334.997 0.13000000000000012
335.309 0.11499999999999999
335.621 0.10667000000000004
335.931 0.10167000000000015
336.243 0.12832999999999983
336.555 0.13333000000000017
336.867 0.12499999999999978
337.177 0.11666999999999983
337.489 0.12832999999999983
337.801 0.11833000000000005
338.111 0.10332999999999992
338.423 0.10667000000000004
338.735 0.11999999999999988
339.045 0.09999999999999987
339.356 0.13666999999999985
339.668 0.10167000000000015
339.978 0.13166999999999995
340.29 0.13833000000000006
340.602 0.11666999999999983
340.914 0.13000000000000012
341.224 0.1399999999999999
341.535 0.1449999999999998
341.847 0.13000000000000012
342.157 0.15166999999999997
342.469 0.13833000000000006
342.781 0.12667000000000006
343.09 0.12332999999999994
343.402 0.13166999999999995
343.714 0.1533300000000002
344.023 0.14832999999999985
344.335 0.12667000000000006
344.645 0.1399999999999999
344.957 0.15999999999999992
345.268 0.1449999999999998
345.578 0.13666999999999985
345.89 0.15500000000000003
346.201 0.15500000000000003
346.511 0.17167
346.823 0.14667000000000008
347.134 0.1399999999999999
347.444 0.15833000000000008
347.755 0.14667000000000008
348.065 0.14167000000000018
348.376 0.13333000000000017
348.688 0.15666999999999986
348.998 0.15500000000000003
349.309 0.15999999999999992
349.619 0.15000000000000013
349.93 0.16332999999999998
350.242 0.1649999999999998
350.551 0.15500000000000003
350.863 0.17500000000000004
351.172 0.15000000000000013
351.484 0.16832999999999987
351.795 0.16332999999999998
352.105 0.1649999999999998
352.416 0.15666999999999986
352.725 0.1649999999999998
353.037 0.16166999999999976
353.346 0.15666999999999986
353.658 0.1666700000000001
353.969 0.16832999999999987
354.278 0.15166999999999997
354.59 0.15500000000000003
354.899 0.17500000000000004
355.211 0.15833000000000008
355.52 0.1666700000000001
355.831 0.19833000000000012
356.142 0.15000000000000013
356.452 0.15999999999999992
356.763 0.1866700000000001
357.072 0.1883299999999999
357.384 0.15000000000000013
357.693 0.1866700000000001
358.004 0.1649999999999998
358.313 0.19999999999999996
358.625 0.1883299999999999
358.934 0.17332999999999976
359.245 0.16166999999999976
359.554 0.18166999999999978
359.865 0.1783300000000001
360.174 0.1783300000000001
360.486 0.18333
360.795 0.17500000000000004
361.106 0.1783300000000001
361.415 0.17167
361.726 0.15833000000000008
362.035 0.17999999999999994
362.346 0.19000000000000017
362.655 0.2083299999999999
362.967 0.16832999999999987
363.276 0.17999999999999994
363.587 0.19000000000000017
363.896 0.16166999999999976
364.207 0.16332999999999998
364.516 0.17332999999999976
364.827 0.1666700000000001
365.136 0.19332999999999978
365.447 0.18333
365.756 0.20333
366.067 0.17332999999999976
366.376 0.15500000000000003
366.687 0.17332999999999976
366.996 0.18166999999999978
367.307 0.1966699999999999
367.615 0.15833000000000008
367.924 0.19332999999999978
368.235 0.17999999999999994
368.544 0.1966699999999999
368.855 0.17167
369.164 0.1966699999999999
369.475 0.18166999999999978
369.784 0.17332999999999976
370.094 0.16832999999999987
370.403 0.1649999999999998
370.712 0.19000000000000017
371.023 0.19167
371.332 0.20333
371.642 0.17332999999999976
371.951 0.19000000000000017
372.262 0.1883299999999999
372.571 0.17500000000000004
372.879 0.2016699999999998
373.19 0.19167
373.499 0.19500000000000006
373.81 0.19332999999999978
374.118 0.19167
374.427 0.1783300000000001
374.738 0.1649999999999998
375.046 0.1866700000000001
375.357 0.15500000000000003
375.666 0.20333
375.974 0.19000000000000017
376.285 0.1783300000000001
376.593 0.17500000000000004
376.902 0.1783300000000001
377.213 0.17167
377.521 0.17332999999999976
377.832 0.17666999999999988
378.14 0.18499999999999983
378.449 0.17500000000000004
378.759 0.17999999999999994
379.068 0.19999999999999996
379.376 0.2100000000000002
379.687 0.18333
379.995 0.18499999999999983
380.304 0.1783300000000001
380.614 0.1783300000000001
380.923 0.1966699999999999
381.231 0.17167
381.542 0.2083299999999999
381.85 0.19500000000000006
382.159 0.19332999999999978
382.469 0.1883299999999999
382.777 0.1883299999999999
383.086 0.17666999999999988
383.396 0.1966699999999999
383.705 0.19167
384.013 0.21666999999999992
384.323 0.20667000000000013
384.632 0.19500000000000006
384.94 0.1966699999999999
385.25 0.22333000000000003
385.559 0.18333
385.867 0.23666999999999994
386.175 0.19500000000000006
386.485 0.19833000000000012
386.794 0.22832999999999992
387.102 0.23167000000000004
387.412 0.2216699999999998
387.72 0.21500000000000008
388.029 0.23332999999999982
388.337 0.21833000000000014
388.647 0.19500000000000006
388.955 0.21833000000000014
389.263 0.22667000000000015
389.571 0.2133299999999998
389.882 0.23167000000000004
390.19 0.23666999999999994
390.498 0.24499999999999988
390.808 0.22499999999999987
391.116 0.2100000000000002
391.424 0.24999999999999978
391.732 0.21999999999999997
392.042 0.22333000000000003
392.351 0.23167000000000004
392.659 0.2083299999999999
392.967 0.21999999999999997
393.275 0.22667000000000015
393.585 0.2550000000000001
393.893 0.25666999999999995
394.201 0.24499999999999988
394.509 0.22667000000000015
394.819 0.24333000000000005
395.127 0.26
395.435 0.25167000000000006
395.743 0.24667000000000017
396.051 0.26832999999999996
396.361 0.23666999999999994
396.668 0.25666999999999995
396.976 0.2849999999999999
397.284 0.28833
397.592 0.26
397.902 0.26166999999999985
398.21 0.2783300000000002
398.518 0.2699999999999998
398.826 0.3066699999999998
399.133 0.2699999999999998
399.443 0.28666999999999976
399.751 0.2916700000000001
400.059 0.24832999999999994
400.367 0.2849999999999999
400.674 0.3033300000000001
400.982 0.29667
401.292 0.29667
401.6 0.30833
401.908 0.28833
402.215 0.2899999999999998
402.523 0.2899999999999998
402.831 0.29667
403.14 0.3133299999999999
403.448 0.3066699999999998
403.756 0.30999999999999983
404.063 0.30000000000000004
404.371 0.30833
404.679 0.28666999999999976
404.986 0.3216699999999999
405.296 0.3266699999999998
405.604 0.3333299999999999
405.911 0.34333000000000014
406.219 0.36333000000000015
406.526 0.32499999999999996
406.834 0.32499999999999996
407.142 0.35167000000000015
407.449 0.3183299999999998
407.759 0.3600000000000001
408.066 0.35167000000000015
408.374 0.32999999999999985
408.681 0.31667
408.989 0.35667000000000004
409.296 0.35499999999999976
409.604 0.3183299999999998
409.911 0.3416699999999999
410.219 0.37332999999999994
410.526 0.36333000000000015
410.834 0.3416699999999999
411.143 0.3466699999999998
411.45 0.35167000000000015
411.758 0.37167000000000017
412.065 0.34999999999999987
412.373 0.34999999999999987
412.68 0.3600000000000001
412.987 0.36666999999999983
413.295 0.38166999999999995
413.602 0.3533299999999999
413.909 0.36166999999999994
414.217 0.3916700000000002
414.524 0.3533299999999999
414.831 0.36166999999999994
415.139 0.3233300000000001
415.446 0.34999999999999987
415.753 0.38166999999999995
416.06 0.38833000000000006
416.37 0.385
416.677 0.365
416.984 0.3383299999999998
417.291 0.3699999999999999
417.599 0.3333299999999999
417.906 0.3400000000000001
418.213 0.35499999999999976
418.52 0.37167000000000017
418.827 0.3350000000000002
419.135 0.37332999999999994
419.442 0.3233300000000001
419.749 0.3533299999999999
420.056 0.36333000000000015
420.363 0.3800000000000001
420.67 0.34333000000000014
420.977 0.37667000000000006
421.284 0.35499999999999976
421.591 0.33167000000000013
421.899 0.3333299999999999
422.206 0.36166999999999994
422.513 0.3383299999999998
422.82 0.3350000000000002
423.127 0.33667
423.434 0.3116700000000001
423.741 0.33167000000000013
424.048 0.36833000000000005
424.355 0.33667
424.662 0.3333299999999999
424.967 0.3400000000000001
425.274 0.3416699999999999
425.58 0.3016699999999999
425.887 0.35499999999999976
426.194 0.30499999999999994
426.501 0.3383299999999998
426.808 0.27500000000000013
427.115 0.30999999999999983
427.422 0.31667
427.729 0.31667
428.036 0.3016699999999999
428.342 0.3266699999999998
428.649 0.31500000000000017
428.956 0.30999999999999983
429.263 0.29832999999999976
429.57 0.2916700000000001
429.875 0.29832999999999976
430.181 0.32833
430.488 0.3116700000000001
430.795 0.28
431.102 0.3016699999999999
431.408 0.30833
431.715 0.30999999999999983
432.022 0.29332999999999987
432.329 0.3066699999999998
432.635 0.2899999999999998
432.942 0.30999999999999983
433.247 0.27500000000000013
433.553 0.26832999999999996
433.86 0.30499999999999994
434.167 0.27500000000000013
434.473 0.2833300000000001
434.78 0.2699999999999998
435.087 0.2649999999999999
435.393 0.2783300000000002
435.698 0.2716700000000001
436.004 0.26832999999999996
436.311 0.24333000000000005
436.617 0.26166999999999985
436.924 0.26333000000000006
437.231 0.26333000000000006
437.537 0.24667000000000017
437.842 0.28833
438.148 0.24333000000000005
438.455 0.25833000000000017
438.761 0.2550000000000001
439.068 0.27500000000000013
439.374 0.2783300000000002
439.681 0.23833000000000015
439.985 0.2649999999999999
440.291 0.2666700000000002
440.598 0.2649999999999999
440.904 0.25332999999999983
441.211 0.25666999999999995
441.515 0.24499999999999988
441.822 0.24166999999999983
442.128 0.23833000000000015
442.434 0.25833000000000017
442.741 0.23833000000000015
443.047 0.2350000000000001
443.351 0.26
443.658 0.26
443.964 0.24333000000000005
444.27 0.23167000000000004
444.575 0.24667000000000017
444.881 0.23833000000000015
445.187 0.23332999999999982
445.493 0.24999999999999978
445.8 0.24333000000000005
446.104 0.2100000000000002
446.41 0.24499999999999988
446.716 0.23332999999999982
447.023 0.21666999999999992
447.327 0.23167000000000004
447.633 0.2216699999999998
447.939 0.23167000000000004
448.245 0.21167000000000002
448.552 0.22667000000000015
448.856 0.21999999999999997
449.162 0.1866700000000001
449.468 0.22832999999999992
449.774 0.2083299999999999
450.078 0.2216699999999998
450.384 0.21833000000000014
450.69 0.22333000000000003
450.994 0.2133299999999998
451.3 0.22333000000000003
451.607 0.22667000000000015
451.913 0.2133299999999998
452.217 0.21167000000000002
452.523 0.21500000000000008
452.829 0.1966699999999999
453.135 0.19999999999999996
453.439 0.2016699999999998
453.745 0.1883299999999999
454.051 0.21167000000000002
454.355 0.17999999999999994
454.661 0.19332999999999978
454.967 0.19000000000000017
455.27 0.19332999999999978
455.576 0.21999999999999997
455.882 0.21167000000000002
456.188 0.2016699999999998
456.492 0.21666999999999992
456.798 0.20333
457.104 0.21500000000000008
457.408 0.21833000000000014
457.714 0.1783300000000001
458.019 0.20667000000000013
458.323 0.2100000000000002
458.629 0.17167
458.935 0.18166999999999978
459.239 0.20667000000000013
459.544 0.2083299999999999
459.85 0.1966699999999999
460.154 0.20333
460.46 0.21999999999999997
460.766 0.22499999999999987
461.069 0.20499999999999985
461.375 0.20499999999999985
461.681 0.23167000000000004
461.984 0.21666999999999992
462.29 0.19500000000000006
462.594 0.1866700000000001
462.9 0.21999999999999997
463.205 0.21833000000000014
463.509 0.19999999999999996
463.814 0.2100000000000002
464.12 0.2350000000000001
464.424 0.2216699999999998
464.729 0.2216699999999998
465.033 0.23833000000000015
465.339 0.2350000000000001
465.644 0.2216699999999998
465.948 0.21999999999999997
466.253 0.2550000000000001
466.557 0.24166999999999983
466.862 0.22667000000000015
467.168 0.23167000000000004
467.471 0.23666999999999994
467.777 0.24499999999999988
468.08 0.26166999999999985
468.386 0.22667000000000015
468.691 0.22667000000000015
468.995 0.22667000000000015
469.3 0.24
469.604 0.25167000000000006
469.909 0.25332999999999983
470.213 0.24333000000000005
470.518 0.24
470.824 0.24999999999999978
471.127 0.25332999999999983
471.432 0.26166999999999985
471.736 0.2699999999999998
472.041 0.2550000000000001
472.344 0.24832999999999994
472.65 0.26832999999999996
472.953 0.24499999999999988
473.258 0.23666999999999994
473.562 0.22832999999999992
473.867 0.2550000000000001
474.172 0.2550000000000001
474.476 0.25666999999999995
474.781 0.27500000000000013
475.084 0.26333000000000006
475.39 0.28833
475.693 0.26333000000000006
475.998 0.2849999999999999
476.301 0.32833
476.606 0.38333000000000017
476.91 0.47
477.215 0.5149999999999999
477.518 0.5566699999999998
477.823 0.5399999999999998
478.126 0.5016700000000001
478.432 0.51833
478.735 0.5050000000000001
479.04 0.5450000000000002
479.343 0.5316699999999999
479.648 0.5549999999999999
479.951 0.5033299999999998
480.256 0.5416700000000001
480.559 0.5399999999999998
480.864 0.5233299999999999
481.167 0.5216700000000001
481.47 0.5349999999999999
481.776 0.5283300000000002
482.079 0.5399999999999998
482.384 0.5483299999999998
482.687 0.5116699999999998
482.992 0.5216700000000001
483.295 0.5050000000000001
483.6 0.49
483.903 0.36333000000000015
484.208 0.3233300000000001
484.51 0.27666999999999997
484.813 0.24
485.118 0.23332999999999982
485.421 0.21666999999999992
485.726 0.23167000000000004
486.029 0.25167000000000006
486.334 0.2550000000000001
486.637 0.23666999999999994
486.94 0.23167000000000004
487.245 0.2350000000000001
487.547 0.21500000000000008
487.852 0.2100000000000002
488.155 0.22999999999999976
488.458 0.28666999999999976
488.763 0.2216699999999998
489.066 0.23833000000000015
489.37 0.24499999999999988
489.673 0.21833000000000014
489.976 0.22999999999999976
490.281 0.21666999999999992
490.583 0.21167000000000002
490.888 0.21500000000000008
491.191 0.20667000000000013
491.494 0.20499999999999985
491.798 0.22499999999999987
492.101 0.24166999999999983
492.404 0.2083299999999999
492.708 0.20499999999999985
493.011 0.21666999999999992
493.316 0.19500000000000006
493.56 0.20093571939992436
493.8645 0.20343571939992408
494.17150000000004 0.21510071939992434
494.476 0.2042657193999244
494.781 0.20927071939992412
495.087 0.18843571939992418
495.392 0.21343071939992428
495.697 0.1851007193999241
496.002 0.20427071939992422
496.308 0.20676571939992414
496.61249999999995 0.18260071939992437
496.918 0.1884357193999244
497.2235 0.21093571939992437
497.528 0.1959307193999242
497.83349999999996 0.20260071939992438
498.1385 0.21343071939992428
498.4435 0.21593071939992423
498.7495 0.19093071939992431
499.0535 0.20676571939992436
499.35850000000005 0.1851007193999241
499.6645 0.2176007193999243
499.9695 0.20093071939992432
500.2735 0.19343571939992407
500.578 0.20010071939992422
500.8845 0.1984357193999242
501.18899999999996 0.18093571939992434
501.49350000000004 0.20176571939992424
501.799 0.21093571939992437
502.104 0.2051007193999241
502.409 0.2051007193999241
502.71299999999997 0.20176571939992424
503.01800000000003 0.21010071939992422
503.32399999999996 0.2176007193999243
503.62800000000004 0.21593571939992426
503.9325 0.20927071939992434
504.238 0.20593571939992425
504.543 0.2042657193999242
504.84749999999997 0.2142657193999242
505.15250000000003 0.21176571939992425
505.457 0.2092657193999243
505.7615 0.2142657193999242
506.0665 0.20593571939992425
506.37149999999997 0.20760071939992428
506.67600000000004 0.21343071939992428
506.9805 0.22676571939992415
507.2845 0.2042657193999242
507.58950000000004 0.1892707193999241
507.895 0.22593071939992423
508.199 0.21010071939992422
508.50300000000004 0.20843571939992442
508.8075 0.21176571939992425
509.11400000000003 0.21593571939992426
509.418 0.22593571939992427
509.722 0.2234307193999243
510.026 0.24093571939992417
510.33000000000004 0.20927071939992434
510.635 0.22593571939992427
510.94050000000004 0.2292657193999241
511.2445 0.22510071939992413
511.5485 0.22593071939992423
511.8525 0.22676571939992415
512.1575 0.22427071939992424
512.4615 0.21676571939992414
512.7665 0.2042657193999242
513.0705 0.24176571939992428
513.3745 0.2226007193999244
513.6795 0.2376007193999243
513.9835 0.22926571939992432
514.1345 0.22093571939992437
514.4385 0.20760071939992428
514.7425000000001 0.24010071939992425
515.0475 0.22343571939992432
515.3525 0.2234357193999241
515.6565 0.23676571939992438
515.9605 0.24010071939992425
516.2645 0.24093071939992414
516.5685000000001 0.24093071939992436
516.8725 0.24093571939992417
517.1769999999999 0.24927071939992415
517.482 0.22260071939992418
517.7860000000001 0.2376007193999243
518.09 0.2501007193999243
518.394 0.23927071939992436
518.6975 0.24176571939992428
519.0015 0.24427071939992426
519.3054999999999 0.2617657193999243
519.61 0.23343571939992433
519.914 0.2534357193999244
520.2175 0.23843571939992422
520.5225 0.25760071939992435
520.8265 0.23926571939992433
521.1305 0.23926571939992433
521.4335000000001 0.25760071939992435
521.7375 0.2517657193999243
522.0425 0.24676571939992417
522.346 0.2501007193999243
522.6495 0.26260071939992424
522.9535000000001 0.24843571939992423
523.2570000000001 0.26343571939992416
523.5605 0.2834357193999242
523.8644999999999 0.25677071939992446
524.168 0.2801007193999243
524.472 0.25843571939992427
524.7760000000001 0.2767657193999242
525.0799999999999 0.2809307193999242
525.384 0.2609357193999242
525.688 0.2534357193999244
525.992 0.2634357193999244
526.2955 0.25426571939992426
526.5989999999999 0.2859307193999243
526.9025 0.28677071939992427
527.206 0.26426571939992427
527.5095 0.26343571939992416
527.813 0.2792657193999244
528.1165000000001 0.29093571939992446
528.4205 0.2707856984227308
528.7235000000001 0.29205325163740414
529.0275 0.2817266828987004
529.3305 0.27561259724286713
529.6345 0.2802083745761679
529.9375 0.27176571939992433
530.2415000000001 0.26677071939992425
530.5445 0.2734357193999244
530.848 0.29593571939992436
531.1514999999999 0.2842707193999241
531.4549999999999 0.27177071939992437
531.7584999999999 0.2751007193999244
532.0615 0.2751007193999242
532.365 0.25926571939992415
532.6685 0.29093571939992446
532.972 0.2834357193999242
533.275 0.2842657193999243
533.5785 0.28677071939992427
533.8820000000001 0.29260071939992427
534.185 0.27343071939992436
534.4884999999999 0.28677071939992427
534.792 0.2842657193999243
535.095 0.2951007193999242
535.3985 0.27677071939992426
535.7015 0.2884357193999243
536.005 0.30010071939992433
536.308 0.28677071939992427
536.6115 0.2834357193999242
536.762 0.2859357193999241
537.0654999999999 0.2709357193999242
537.3685 0.2892657193999242
537.672 0.29176571939992435
537.975 0.2842707193999243
538.278 0.28093571939992423
538.5799999999999 0.24343571939992412
538.883 0.2601007193999243
539.1865 0.2659307193999243
539.49 0.28260071939992426
539.793 0.2609307193999242
540.096 0.2701007193999243
540.399 0.2576007193999241
540.702 0.2834357193999242
541.005 0.27593571939992434
541.3074999999999 0.27260071939992425
541.6105 0.25010071939992407
541.9135 0.25260071939992423
542.2165 0.2609357193999242
542.5195 0.24676571939992417
542.8215 0.26343571939992416
543.1245 0.26926571939992416
543.4275 0.27093571939992445
543.7305 0.24926571939992412
544.0335 0.2551007193999242
544.3365 0.2509307193999242
544.6395 0.2501007193999243
544.9414999999999 0.24260071939992442
545.2445 0.24510071939992437
545.5465 0.2467657193999244
545.8495 0.24010071939992425
546.1525 0.2426007193999242
546.4549999999999 0.2234357193999241
546.758 0.23426571939992422
547.0609999999999 0.2051007193999241
547.363 0.2134357193999241
547.6659999999999 0.21927071939992435
547.9680000000001 0.23176571939992427
548.271 0.2242657193999242
548.5730000000001 0.21010071939992422
548.876 0.23010071939992424
549.179 0.22593071939992423
549.482 0.2242657193999242
549.784 0.2142657193999242
550.0854999999999 0.23010071939992424
550.388 0.20510071939992433
550.691 0.21260071939992417
550.9939999999999 0.20260071939992416
551.2964999999999 0.2134357193999243
551.5985000000001 0.2184357193999242
551.9010000000001 0.19593571939992424
552.2025000000001 0.18760071939992426
552.5055 0.19093571939992435
552.8085000000001 0.1984357193999242
553.1105 0.2126007193999244
553.4124999999999 0.18677071939992415
553.7145 0.16843071939992435
554.0165 0.17676571939992433
554.3195000000001 0.16676571939992432
554.622 0.15926571939992426
554.9235000000001 0.16343571939992427
555.2265 0.16843571939992438
555.528 0.18010071939992442
555.8305 0.17260071939992414
556.133 0.1701007193999244
556.435 0.16593571939992421
556.7375 0.1617657193999242
557.039 0.16010071939992418
557.3415 0.14426571939992436
557.644 0.15426571939992414
557.9459999999999 0.1651007193999243
558.247 0.14677071939992434
558.55 0.13260071939992432
558.852 0.15093071939992428
559.1534999999999 0.1559357193999242
559.304 0.16093571939992432
559.606 0.13926571939992424
559.908 0.14343571939992425
560.2090000000001 0.13427071939992438
560.512 0.11093071939992424
560.8140000000001 0.13426571939992413
561.1155 0.13760071939992422
561.417 0.13760071939992422
561.719 0.13843571939992413
562.022 0.12176571939992417
562.323 0.11593571939992439
562.6245 0.13260071939992432
562.927 0.1309357193999243
563.229 0.13426571939992435
563.5305 0.11426571939992433
563.832 0.1317707193999242
564.1345 0.10593571939992438
564.4365 0.12260071939992431
564.7375 0.10927071939992425
565.0395 0.11510071939992425
565.3415 0.12427071939992415
565.6424999999999 0.12010071939992437
565.9435000000001 0.11010071939992414
566.2465 0.1084307193999243
566.5485 0.11676571939992428
566.8485000000001 0.1126007193999243
567.1510000000001 0.10510071939992424
567.453 0.12010071939992437
567.7545 0.12343571939992423
568.0554999999999 0.11260071939992408
568.3575000000001 0.12010071939992414
568.6600000000001 0.14843071939992433
568.96 0.10510071939992424
569.262 0.12260071939992431
569.5640000000001 0.08593071939992411
569.864 0.10260071939992407
570.1665 0.09593071939992412
570.469 0.10426571939992432
570.769 0.1276007193999242
571.0709999999999 0.11010071939992414
571.373 0.12093071939992425
571.673 0.10510071939992424
571.975 0.10343071939992418
572.2760000000001 0.10510071939992424
572.577 0.1026007193999243
572.879 0.10926571939992422
573.1800000000001 0.11343571939992422
573.481 0.10510071939992424
573.7835 0.12426571939992434
574.0844999999999 0.11926571939992422
574.3855 0.10426571939992432
574.687 0.10510071939992424
574.988 0.09926571939992421
575.289 0.1126007193999243
575.59 0.10593571939992438
575.8905 0.11510071939992425
576.1925 0.1067707193999243
576.4935 0.11426571939992411
576.7945 0.10093571939992427
577.0955 0.10426571939992432
577.3975 0.11343071939992441
577.6985 0.10760071939992419
577.999 0.10926571939992422
578.3 0.10760071939992441
578.601 0.09426571939992431
578.9024999999999 0.10676571939992427
579.2035 0.10593071939992435
579.5045 0.11260071939992408
579.806 0.09676571939992426
580.106 0.12093071939992425
580.408 0.10176571939992415
580.7075 0.11510071939992425
581.009 0.11176571939992416
581.311 0.0967707193999243
581.611 0.11343071939992419
581.761 0.11176571939992416
582.061 0.10176571939992415
582.3620000000001 0.0984357193999241
582.663 0.11010071939992436
582.9635000000001 0.13260071939992432
583.264 0.11010071939992436
583.566 0.11427071939992436
583.8665000000001 0.11927071939992426
584.167 0.11093571939992428
584.4675 0.10593571939992438
584.7685 0.1184307193999243
585.069 0.11260071939992408
585.3695 0.12010071939992414
585.6715 0.10010071939992435
585.9704999999999 0.11426571939992411
586.2725 0.10927071939992425
586.572 0.11010071939992414
586.8734999999999 0.11010071939992414
587.1735 0.10093571939992427
587.4745 0.12843071939992431
587.7745 0.1176007193999242
588.0754999999999 0.12093571939992429
588.3755 0.12176571939992417
588.6765 0.11010071939992436
588.9765 0.1259357193999244
589.2775 0.11010071939992414
589.577 0.11843571939992434
589.8785 0.13843571939992413
590.1790000000001 0.11676571939992428
590.4795 0.11093071939992424
590.78 0.12093571939992429
591.0805 0.12010071939992437
591.3810000000001 0.09676571939992426
591.681 0.11676571939992428
591.982 0.13176571939992418
592.2819999999999 0.11760071939992442
592.582 0.12260071939992409
592.8820000000001 0.12260071939992409
593.183 0.12510071939992426
593.4825000000001 0.11843571939992434
593.784 0.11843571939992412
594.083 0.12843071939992431
594.3845 0.12593571939992418
594.684 0.13093071939992426
594.984 0.1217657193999244
595.2845 0.12343571939992423
595.5835 0.12510071939992426
595.885 0.11760071939992442
596.184 0.1284307193999241
596.4855 0.1276007193999242
596.7845 0.12427071939992437
597.086 0.1367707193999241
597.385 0.14093071939992427
597.6855 0.1267707193999241
597.9855 0.1359357193999242
598.2855 0.13343571939992424
598.5854999999999 0.13760071939992422
598.885 0.12510071939992426
599.1855 0.14093071939992427
599.4855 0.1417657193999242
599.7855 0.12926571939992423
600.0854999999999 0.13926571939992424
600.3855 0.1417657193999244
600.6845000000001 0.16260071939992435
600.985 0.15093071939992428
601.2850000000001 0.1517657193999242
601.5840000000001 0.15010071939992417
601.8855 0.1276007193999242
602.1845000000001 0.13426571939992413
602.4855 0.14760071939992422
602.7845 0.14926571939992425
603.0835 0.1609307193999243
603.3845 0.14760071939992422
603.5329999999999 0.1309357193999243
603.832 0.1367657193999243
604.133 0.14593571939992442
604.4315 0.13426571939992413
604.7305 0.13093071939992426
605.0315 0.14593571939992442
605.3305 0.14760071939992422
605.6305 0.1459357193999242
605.9304999999999 0.1467657193999243
606.2294999999999 0.1367657193999243
606.5295 0.15427071939992418
606.8295 0.13760071939992422
607.1285 0.15260071939992434
607.4285 0.1467657193999243
607.7280000000001 0.14427071939992417
608.0275 0.12593571939992418
608.3265 0.14593071939992439
608.6265000000001 0.16010071939992418
608.9265 0.15760071939992423
609.2255 0.14843571939992414
609.525 0.14843571939992414
609.825 0.14426571939992436
610.1235 0.1359357193999244
610.4225 0.15010071939992417
610.723 0.16843571939992438
611.0219999999999 0.13510071939992427
611.3205 0.13343571939992424
611.6215 0.14843571939992414
611.9200000000001 0.13343571939992424
612.219 0.13260071939992432
612.519 0.13843071939992432
612.818 0.13176571939992418
613.117 0.14843071939992433
613.4169999999999 0.14760071939992422
613.715 0.1176007193999242
614.015 0.14177071939992422
614.315 0.12343571939992423
614.613 0.12843571939992435
614.912 0.12343571939992445
615.213 0.13176571939992418
615.511 0.13926571939992424
615.81 0.13843571939992436
616.1095 0.11927071939992426
616.409 0.1367657193999243
616.7075 0.14010071939992438
617.0060000000001 0.1259357193999244
617.306 0.1309357193999243
617.6055 0.12843571939992435
617.904 0.11760071939992442
618.2035000000001 0.11093571939992428
618.502 0.11926571939992422
618.8005 0.12593571939992418
619.0999999999999 0.10760071939992419
619.3995 0.10593571939992416
619.698 0.13260071939992432
619.9965 0.13843071939992432
620.2945 0.10593571939992416
620.5955 0.12843071939992431
620.8934999999999 0.10426571939992432
621.1925 0.11926571939992422
621.4905 0.1126007193999243
621.7895 0.12260071939992431
622.0895 0.11176571939992438
622.3875 0.12927071939992427
622.6865 0.11176571939992416
622.9855 0.12343571939992423
623.2835 0.1267657193999243
623.5825 0.11510071939992425
623.8815 0.10926571939992422
624.1804999999999 0.11093571939992428
624.4794999999999 0.10343571939992421
624.7775 0.1026007193999243
625.0754999999999 0.10427071939992413
625.2235000000001 0.1117707193999242
625.5245 0.11093571939992428
625.8225 0.10926571939992422
626.1205 0.11426571939992433
626.4190000000001 0.11427071939992414
626.7175 0.09426571939992409
627.0165 0.10177071939992419
627.3145 0.10676571939992427
627.614 0.0892657193999242
627.9124999999999 0.1126007193999243
628.2105 0.09926571939992421
628.5094999999999 0.09426571939992431
628.8075 0.08093571939992425
629.106 0.12260071939992431
629.404 0.09343071939992417
629.702 0.10093071939992423
630.0025 0.10010071939992435
630.3005 0.08843071939992428
630.5985000000001 0.10093071939992423
630.8965000000001 0.09426571939992431
631.1949999999999 0.0892657193999242
631.4929999999999 0.09843571939992432
631.7919999999999 0.0892657193999242
632.09 0.11426571939992433
632.3879999999999 0.0976007193999244
632.6859999999999 0.08593571939992414
632.984 0.10510071939992446
633.283 0.09093571939992426
633.582 0.10510071939992424
633.88 0.08843571939992431
634.178 0.07676571939992424
634.476 0.09926571939992421
634.774 0.09093071939992423
635.072 0.10510071939992424
635.37 0.09593571939992437
635.669 0.09010071939992434
635.9670000000001 0.10593071939992413
636.265 0.10676571939992427
636.563 0.10260071939992407
636.861 0.0834357193999242
637.159 0.1042657193999241
637.4570000000001 0.09760071939992418
637.7545 0.10010071939992435
638.0519999999999 0.11593571939992439
638.351 0.1026007193999243
638.649 0.09926571939992443
638.947 0.13093071939992426
639.245 0.10593571939992416
639.5425 0.10510071939992424
639.8415 0.11510071939992425
640.139 0.10760071939992419
640.437 0.11093071939992424
640.735 0.11176571939992416
641.0325 0.11676571939992428
641.3315 0.11093571939992428
641.6289999999999 0.1176007193999242
641.927 0.1026007193999243
642.2245 0.11593571939992439
642.5225 0.12093571939992429
642.8199999999999 0.1184307193999243
643.1175000000001 0.11926571939992445
643.4145000000001 0.14343071939992444
643.712 0.0984357193999241
644.0095 0.11677071939992431
644.3075 0.11427071939992414
644.605 0.14343071939992422
644.9024999999999 0.13260071939992432
645.2005 0.1359357193999244
645.498 0.11843571939992412
645.7965 0.1367657193999243
646.0944999999999 0.12093571939992429
646.242 0.12510071939992426
646.5395 0.1309357193999243
646.8375000000001 0.1359357193999242
647.1345 0.1409357193999243
647.4325 0.12093571939992429
647.73 0.1417657193999242
648.0275 0.12843071939992431
648.325 0.1367657193999243
648.6225 0.1367657193999243
648.9200000000001 0.13427071939992438
649.2175 0.13843571939992436
649.514 0.15010071939992417
649.8115 0.13677071939992433
650.1089999999999 0.13010071939992415
650.4065 0.1559357193999242
650.704 0.14427071939992417
651.0015000000001 0.14343571939992425
651.299 0.1267707193999241
651.596 0.12843571939992435
651.8934999999999 0.14426571939992436
652.191 0.15343571939992426
652.4884999999999 0.14343071939992444
652.785 0.1501007193999244
653.082 0.12177071939992443
653.3795 0.14010071939992416
653.6769999999999 0.14510071939992428
653.9739999999999 0.15260071939992434
654.2715000000001 0.11593571939992439
654.569 0.13426571939992435
654.866 0.1317657193999244
655.1624999999999 0.13260071939992432
655.46 0.1317657193999244
655.7570000000001 0.12760071939992443
656.054 0.12593071939992437
656.3520000000001 0.11677071939992431
656.6479999999999 0.1276007193999242
656.945 0.11093571939992428
657.241 0.13426571939992413
657.539 0.11176571939992438
657.836 0.1126007193999243
658.133 0.11926571939992422
658.4300000000001 0.11510071939992425
658.7275 0.1026007193999243
659.025 0.11343571939992422
659.321 0.09510071939992423
659.6179999999999 0.11843571939992412
659.915 0.10093071939992423
660.212 0.11676571939992428
660.5094999999999 0.11343071939992419
660.8054999999999 0.08676571939992425
661.102 0.10510071939992424
661.399 0.10343071939992418
661.696 0.0892657193999242
661.9929999999999 0.10593571939992438
662.29 0.09010071939992434
662.586 0.0934307193999244
662.883 0.11093571939992428
663.1800000000001 0.08260071939992428
663.477 0.10010071939992413
663.7729999999999 0.07926571939992419
664.069 0.09510071939992423
664.366 0.10927071939992425
664.6635 0.07510071939992444
664.9605 0.08093071939992422
665.2560000000001 0.07010071939992432
665.553 0.09426571939992431
665.8499999999999 0.09260071939992429
666.1469999999999 0.08010071939992433
666.443 0.08177071939992417
666.739 0.07176571939992435
667.0360000000001 0.07676571939992424
667.3330000000001 0.08010071939992411
667.4795 0.08177071939992417
667.7760000000001 0.07010071939992432
668.073 0.0551007193999242
668.37 0.08676571939992425
668.6659999999999 0.07260071939992427
668.962 0.08510071939992422
669.2584999999999 0.0784357193999243
669.5554999999999 0.08093571939992425
669.851 0.07093071939992421
670.148 0.07093571939992424
670.4449999999999 0.07760071939992416
670.741 0.07926571939992419
671.0364999999999 0.06677071939992427
671.3330000000001 0.06426571939992429
671.63 0.07260071939992427
671.9259999999999 0.08593571939992414
672.2225 0.06676571939992423
672.518 0.06260071939992426
672.815 0.06260071939992426
673.111 0.0551007193999242
673.4075 0.07093571939992424
673.704 0.07593571939992436
673.999 0.0684357193999243
674.2955 0.08343071939992416
674.5920000000001 0.06927071939992421
674.888 0.07593571939992413
675.1845000000001 0.07676571939992446
675.48 0.0684357193999243
675.7760000000001 0.06177071939992437
676.072 0.06927071939992421
676.369 0.07843071939992427
676.665 0.05843571939992406
676.96 0.06426571939992429
677.2570000000001 0.07510071939992422
677.552 0.057600719399924144
677.8489999999999 0.07176571939992435
678.1445 0.05677071939992426
678.44 0.0651007193999242
678.7370000000001 0.058435719399924285
679.033 0.05676571939992445
679.328 0.07176571939992435
679.624 0.06176571939992434
679.921 0.06510071939992443
680.216 0.06260071939992426
680.512 0.06093571939992423
680.807 0.0634357193999244
681.1034999999999 0.056765719399924225
681.4000000000001 0.06343071939992437
681.694 0.06427071939992432
681.991 0.055930719399924306
682.2860000000001 0.048430719399924244
682.5830000000001 0.07593571939992413
682.8779999999999 0.0634357193999244
683.1735000000001 0.06010071939992409
683.47 0.06093071939992442
683.764 0.0609307193999242
684.0609999999999 0.05510071939992442
684.357 0.06343571939992418
684.652 0.048430719399924244
684.948 0.05176571939992433
685.2429999999999 0.06676571939992446
685.539 0.06426571939992407
685.835 0.06676571939992423
686.13 0.07260071939992427
686.426 0.06093071939992442
686.7215 0.05260071939992425
687.017 0.04426571939992427
687.3119999999999 0.06510071939992443
687.608 0.03260071939992423
687.9035 0.05343071939992436
688.05 0.05843071939992425
687.977 0.053531438799848605
688.275 0.043531438799848374
688.573 0.06187143879984862
688.869 0.07353143879984864
689.167 0.03687143879984871
689.466 0.06187143879984862
689.762 0.035201438799848425
690.06 0.03853143879984848
690.358 0.04853143879984871
690.654 0.046871438799848494
690.952 0.06687143879984851
691.25 0.030201438799848532
691.547 0.05520143879984844
691.845 0.05520143879984844
692.143 0.045201438799848656
692.439 0.056871438799848725
692.737 0.02353143879984837
693.033 0.053531438799848605
693.331 0.053531438799848605
693.629 0.04853143879984871
693.925 0.05520143879984844
694.223 0.05520143879984844
694.521 0.07187143879984842
694.817 0.046871438799848494
695.115 0.045201438799848656
695.413 0.05187143879984839
695.709 0.07687143879984831
696.007 0.05520143879984844
696.303 0.045201438799848656
696.601 0.060201438799848336
696.899 0.05020143879984855
697.195 0.05020143879984855
697.493 0.06520143879984867
697.789 0.05187143879984839
698.087 0.060201438799848336
698.385 0.0585314387998485
698.681 0.045201438799848656
698.978 0.0418714387998486
699.274 0.03187143879984837
699.572 0.053531438799848605
699.868 0.05187143879984839
700.166 0.045201438799848656
700.464 0.05520143879984844
700.759 0.045201438799848656
701.057 0.07187143879984842
701.353 0.07020143879984857
701.651 0.056871438799848725
701.947 0.03353143879984859
702.244 0.030201438799848532
702.542 0.056871438799848725
702.838 0.06353143879984839
703.136 0.04020143879984832
703.431 0.06520143879984867
703.729 0.056871438799848725
704.025 0.0418714387998486
704.323 0.05020143879984855
704.618 0.060201438799848336
704.916 0.04020143879984832
705.212 0.043531438799848374
705.509 0.021871438799848597
705.805 0.03353143879984859
706.103 0.035201438799848425
706.4 0.04020143879984832
706.696 0.03687143879984871
706.993 0.05187143879984839
707.289 0.04020143879984832
707.587 0.0418714387998486
707.882 0.06353143879984839
708.18 0.0418714387998486
708.475 0.03853143879984848
708.773 0.03187143879984837
709.068 0.03687143879984871
709.366 0.046871438799848494
709.661 0.043531438799848374
709.959 0.06687143879984851
710.255 0.0418714387998486
710.552 0.04020143879984832
710.847 0.03687143879984871
711.145 0.008531438799848468
711.44 0.03187143879984837
711.736 0.035201438799848425
712.033 0.03187143879984837
712.329 0.05020143879984855
712.626 0.0585314387998485
712.922 0.04020143879984832
713.219 0.0585314387998485
713.514 0.06520143879984867
713.812 0.03353143879984859
714.107 0.053531438799848605
714.405 0.046871438799848494
714.7 0.0418714387998486
714.997 0.046871438799848494
715.293 0.05187143879984839
715.588 0.045201438799848656
715.885 0.046871438799848494
716.181 0.020201438799848315
716.478 0.03687143879984871
716.773 0.04020143879984832
717.07 0.03853143879984848
717.366 0.046871438799848494
717.661 0.05520143879984844
717.958 0.05520143879984844
718.254 0.05187143879984839
718.551 0.046871438799848494
718.846 0.056871438799848725
719.141 0.053531438799848605
719.438 0.046871438799848494
719.734 0.021871438799848597
720.031 0.05520143879984844
720.326 0.03353143879984859
720.621 0.03687143879984871
720.918 0.043531438799848374
721.213 0.04853143879984871
721.511 0.03853143879984848
721.806 0.03187143879984837
722.101 0.060201438799848336
722.398 0.056871438799848725
722.693 0.018531438799848476
722.99 0.05020143879984855
723.285 0.026871438799848477
723.58 0.06187143879984862
723.877 0.03353143879984859
724.172 0.043531438799848374
724.467 0.016871438799848704
724.764 0.05187143879984839
725.06 0.046871438799848494
725.354 0.043531438799848374
725.651 0.05020143879984855
725.946 0.03353143879984859
726.243 0.04020143879984832
726.538 0.03853143879984848
726.833 0.046871438799848494
727.13 0.046871438799848494
727.425 0.04020143879984832
727.72 0.045201438799848656
728.017 0.04853143879984871
728.312 0.043531438799848374
728.607 0.04853143879984871
728.904 0.04853143879984871
729.199 0.04020143879984832
729.494 0.026871438799848477
729.789 0.045201438799848656
730.085 0.05520143879984844
730.38 0.060201438799848336
730.675 0.015201438799848421
730.972 0.043531438799848374
731.267 0.028531438799848693
731.562 0.018531438799848476
731.858 0.04853143879984871
732.153 0.028531438799848693
732.448 0.045201438799848656
732.743 0.05020143879984855
733.039 0.0418714387998486
733.334 0.03187143879984837
733.629 0.045201438799848656
733.926 0.04853143879984871
734.22 0.06187143879984862
734.515 0.035201438799848425
734.81 0.035201438799848425
735.107 0.043531438799848374
735.401 0.035201438799848425
735.696 0.05020143879984855
735.991 0.035201438799848425
736.287 0.015201438799848421
736.582 0.018531438799848476
736.876 0.060201438799848336
737.171 0.045201438799848656
737.468 0.04853143879984871
737.762 0.053531438799848605
738.057 0.043531438799848374
738.352 0.04853143879984871
738.648 0.04020143879984832
738.943 0.05520143879984844
739.237 0.015201438799848421
739.532 0.03687143879984871
739.828 0.045201438799848656
740.123 0.045201438799848656
740.417 0.0418714387998486
740.712 0.0418714387998486
741.006 0.045201438799848656
741.303 0.011871438799848366
741.597 0.03853143879984848
741.892 0.046871438799848494
742.186 0.026871438799848477
742.483 0.02353143879984837
742.777 0.05187143879984839
743.072 0.026871438799848477
743.366 0.025201438799848652
743.66 0.06520143879984867
743.955 0.035201438799848425
744.251 0.04853143879984871
744.546 0.04853143879984871
744.84 0.04853143879984871
745.134 0.011871438799848366
745.429 0.0418714387998486
745.725 0.0418714387998486
746.019 0.056871438799848725
746.314 0.0418714387998486
746.608 0.05187143879984839
746.902 0.0418714387998486
747.197 0.035201438799848425
747.493 0.04853143879984871
747.787 0.03687143879984871
748.082 0.018531438799848476
748.376 0.030201438799848532
748.67 0.03687143879984871
748.964 0.05520143879984844
749.259 0.03687143879984871
749.555 0.021871438799848597
749.849 0.03353143879984859
750.143 0.030201438799848532
750.437 0.028531438799848693
750.732 0.046871438799848494
751.026 0.026871438799848477
751.32 0.0418714387998486
751.614 0.03853143879984848
751.91 0.0418714387998486
752.204 0.0418714387998486
752.498 0.03853143879984848
752.793 0.035201438799848425
753.087 0.028531438799848693
753.381 0.03687143879984871
753.675 0.026871438799848477
753.969 0.03187143879984837
754.263 0.05020143879984855
754.559 0.060201438799848336
754.853 0.028531438799848693
755.147 0.04020143879984832
755.441 0.043531438799848374
755.735 0.030201438799848532
756.029 0.045201438799848656
756.323 0.045201438799848656
756.617 0.04020143879984832
756.911 0.045201438799848656
757.205 0.03687143879984871
757.499 0.03187143879984837
757.793 0.03353143879984859
758.087 0.04020143879984832
758.381 0.03687143879984871
758.677 0.06353143879984839
758.971 0.035201438799848425
759.265 0.05520143879984844
759.559 0.0418714387998486
759.853 0.05187143879984839
760.146 0.043531438799848374
760.44 0.06353143879984839
760.734 0.05187143879984839
761.028 0.025201438799848652
761.322 0.05520143879984844
761.616 0.03687143879984871
761.909 0.03187143879984837
762.203 0.020201438799848315
762.497 0.030201438799848532
762.791 0.03853143879984848
763.085 0.04853143879984871
763.378 0.020201438799848315
763.672 0.035201438799848425
763.966 0.060201438799848336
764.26 0.026871438799848477
764.553 0.05187143879984839
764.847 0.035201438799848425
765.141 0.035201438799848425
765.435 0.03687143879984871
765.728 0.0418714387998486
766.022 0.026871438799848477
766.316 0.025201438799848652
766.609 0.0418714387998486
766.903 0.045201438799848656
767.197 0.043531438799848374
767.49 0.0585314387998485
767.784 0.043531438799848374
768.078 0.046871438799848494
768.371 0.03687143879984871
768.665 0.035201438799848425
768.958 0.02353143879984837
769.252 0.060201438799848336
769.546 0.04020143879984832
769.839 0.03687143879984871
770.133 0.026871438799848477
770.426 0.056871438799848725
770.72 0.0418714387998486
771.013 0.016871438799848704
771.305 0.03687143879984871
771.598 0.021871438799848597
771.892 0.026871438799848477
772.185 0.05520143879984844
772.479 0.05020143879984855
772.772 0.035201438799848425
773.066 0.05187143879984839
773.359 0.0418714387998486
773.653 0.0418714387998486
773.946 0.028531438799848693
774.239 0.05020143879984855
774.533 0.035201438799848425
774.826 0.035201438799848425
775.12 0.018531438799848476
775.411 0.043531438799848374
775.704 0.045201438799848656
775.998 0.015201438799848421
776.291 0.02353143879984837
776.584 0.04020143879984832
776.878 0.028531438799848693
777.171 0.04020143879984832
777.464 0.026871438799848477
777.758 0.053531438799848605
778.049 0.03687143879984871
778.342 0.04020143879984832
778.636 0.06353143879984839
778.929 0.03353143879984859
779.222 0.021871438799848597
779.515 0.02353143879984837
779.809 0.043531438799848374
780.102 0.03853143879984848
780.393 0.03687143879984871
780.686 0.021871438799848597
780.979 0.028531438799848693
781.273 0.06687143879984851
781.566 0.02353143879984837
781.859 0.025201438799848652
782.152 0.03353143879984859
782.443 0.046871438799848494
782.737 0.028531438799848693
783.03 0.008531438799848468
783.323 0.03853143879984848
783.616 0.030201438799848532
783.909 0.03687143879984871
784.2 0.021871438799848597
784.493 0.03687143879984871
784.786 0.021871438799848597
785.079 0.030201438799848532
785.372 0.0418714387998486
785.664 0.056871438799848725
785.957 0.03687143879984871
786.25 0.04853143879984871
786.543 0.003531438799848574
786.836 0.053531438799848605
787.127 0.021871438799848597
787.42 0.03353143879984859
787.713 0.05187143879984839
788.006 0.025201438799848652
788.299 0.03353143879984859
788.59 0.045201438799848656
788.882 0.05020143879984855
789.175 0.0418714387998486
789.468 0.0418714387998486
789.761 0.04853143879984871
790.052 0.05520143879984844
790.345 0.028531438799848693
790.638 0.05520143879984844
790.931 0.03853143879984848
791.222 0.056871438799848725
791.515 0.045201438799848656
791.807 0.03687143879984871
792.1 0.05187143879984839
792.391 0.030201438799848532
792.684 0.021871438799848597
792.977 0.04853143879984871
793.27 0.056871438799848725
793.56 0.03687143879984871
793.853 0.05187143879984839
794.146 0.03187143879984837
794.439 0.0585314387998485
794.729 0.015201438799848421
795.022 0.03687143879984871
795.315 0.05020143879984855
795.606 0.025201438799848652
795.898 0.03853143879984848
796.191 0.03353143879984859
796.484 0.046871438799848494
796.775 0.03353143879984859
797.067 0.043531438799848374
797.36 0.05020143879984855
797.651 0.035201438799848425
797.943 0.046871438799848494
798.236 0.03687143879984871
798.528 0.04853143879984871
798.819 0.035201438799848425
799.112 0.03187143879984837
799.404 0.05520143879984844
799.695 0.026871438799848477
799.987 0.026871438799848477
800.28 0.02353143879984837
800.571 0.03353143879984859
800.863 0.03353143879984859
801.156 0.03853143879984848
801.446 0.03853143879984848
801.739 0.04020143879984832
802.031 0.028531438799848693
802.322 0.035201438799848425
802.614 0.03187143879984837
802.907 0.0418714387998486
803.197 0.03687143879984871
803.49 0.035201438799848425
803.782 0.060201438799848336
804.073 0.043531438799848374
804.365 0.043531438799848374
804.658 0.03353143879984859
804.948 0.015201438799848421
805.241 0.045201438799848656
805.531 0.03853143879984848
805.823 0.03853143879984848
806.116 0.046871438799848494
806.406 0.045201438799848656
806.698 0.046871438799848494
806.991 0.028531438799848693
807.281 0.043531438799848374
807.574 0.02353143879984837
807.864 0.03353143879984859
808.156 0.046871438799848494
808.449 0.05187143879984839
808.739 0.04020143879984832
809.031 0.043531438799848374
809.321 0.046871438799848494
809.614 0.03687143879984871
809.906 0.030201438799848532
810.196 0.03353143879984859
810.489 0.035201438799848425
810.779 0.03353143879984859
811.071 0.03687143879984871
811.363 0.03187143879984837
811.653 0.0585314387998485
811.946 0.026871438799848477
812.236 0.046871438799848494
812.528 0.04020143879984832
812.818 0.043531438799848374
813.11 0.0418714387998486
813.401 0.046871438799848494
813.693 0.05020143879984855
813.985 0.021871438799848597
814.275 0.025201438799848652
814.567 0.03687143879984871
814.857 0.03187143879984837
815.149 0.026871438799848477
815.439 0.03853143879984848
815.731 0.030201438799848532
816.022 0.04020143879984832
816.314 0.021871438799848597
816.604 0.035201438799848425
816.896 0.05020143879984855
817.188 0.053531438799848605
817.478 0.05020143879984855
817.77 0.05020143879984855
818.06 0.03687143879984871
818.352 0.030201438799848532
818.642 0.04853143879984871
818.934 0.030201438799848532
819.224 0.03687143879984871
819.516 0.03687143879984871
819.806 0.04853143879984871
820.098 0.03853143879984848
820.388 0.03853143879984848
820.679 0.030201438799848532
820.969 0.030201438799848532
821.261 0.045201438799848656
821.551 0.06187143879984862
821.843 0.0418714387998486
822.133 0.011871438799848366
822.423 0.06353143879984839
822.715 0.07020143879984857
823.005 0.04020143879984832
823.296 0.04853143879984871
823.586 0.03853143879984848
823.878 0.06353143879984839
824.168 0.043531438799848374
824.46 0.04853143879984871
824.749 0.06687143879984851
825.041 0.05520143879984844
825.331 0.05187143879984839
825.623 0.060201438799848336
825.912 0.021871438799848597
826.202 0.03687143879984871
826.494 0.05520143879984844
826.784 0.03187143879984837
827.075 0.03353143879984859
827.365 0.028531438799848693
827.657 0.056871438799848725
827.947 0.043531438799848374
828.236 0.05020143879984855
828.528 0.04853143879984871
828.818 0.03687143879984871
829.109 0.05187143879984839
829.399 0.0585314387998485
829.69 0.035201438799848425
829.98 0.05020143879984855
830.27 0.053531438799848605
830.561 0.04853143879984871
830.851 0.0418714387998486
831.143 0.03353143879984859
831.432 0.03687143879984871
831.722 0.056871438799848725
832.013 0.035201438799848425
832.303 0.0418714387998486
832.592 0.04020143879984832
832.884 0.035201438799848425
833.173 0.03353143879984859
833.465 0.08020143879984837
833.754 0.053531438799848605
834.044 0.06520143879984867
834.335 0.046871438799848494
834.625 0.05020143879984855
834.914 0.045201438799848656
835.206 0.07187143879984842
835.495 0.07187143879984842
835.785 0.025201438799848652
836.076 0.03687143879984871
836.366 0.07853143879984853
836.657 0.03853143879984848
836.946 0.056871438799848725
837.236 0.04853143879984871
837.527 0.0418714387998486
837.817 0.07020143879984857
838.106 0.030201438799848532
838.397 0.05520143879984844
838.687 0.035201438799848425
838.976 0.05520143879984844
839.265 0.03687143879984871
839.557 0.03187143879984837
839.846 0.06187143879984862
840.135 0.043531438799848374
840.426 0.03187143879984837
840.716 0.03353143879984859
841.005 0.0585314387998485
841.296 0.06353143879984839
841.586 0.030201438799848532
841.875 0.0585314387998485
842.166 0.04853143879984871
842.455 0.053531438799848605
842.744 0.03353143879984859
843.034 0.05520143879984844
843.325 0.04853143879984871
843.614 0.03853143879984848
843.903 0.06187143879984862
844.194 0.05520143879984844
844.484 0.03187143879984837
844.773 0.05187143879984839
845.062 0.020201438799848315
845.353 0.06687143879984851
845.642 0.053531438799848605
845.931 0.035201438799848425
846.22 0.046871438799848494
846.511 0.03353143879984859
846.801 0.05520143879984844
847.09 0.04853143879984871
847.379 0.06187143879984862
847.67 0.046871438799848494
847.959 0.060201438799848336
848.248 0.06187143879984862
848.537 0.03187143879984837
848.828 0.0585314387998485
849.117 0.06353143879984839
849.406 0.035201438799848425
849.695 0.04853143879984871
849.984 0.07020143879984857
850.275 0.06187143879984862
850.564 0.03353143879984859
850.853 0.046871438799848494
851.142 0.05187143879984839
851.431 0.05020143879984855
851.722 0.03687143879984871
852.011 0.0585314387998485
852.299 0.06687143879984851
852.588 0.05020143879984855
852.877 0.03353143879984859
853.168 0.0585314387998485
853.457 0.05520143879984844
853.746 0.0418714387998486
854.035 0.043531438799848374
854.324 0.05520143879984844
854.614 0.046871438799848494
854.903 0.045201438799848656
855.192 0.045201438799848656
855.481 0.05520143879984844
855.77 0.07687143879984831
856.058 0.043531438799848374
856.349 0.060201438799848336
856.638 0.053531438799848605
856.927 0.05187143879984839
857.216 0.045201438799848656
857.504 0.05020143879984855
857.793 0.045201438799848656
858.082 0.04853143879984871
858.372 0.046871438799848494
858.661 0.013531438799848583
858.95 0.04853143879984871
859.239 0.053531438799848605
859.527 0.03853143879984848
859.816 0.05520143879984844
860.105 0.035201438799848425
860.395 0.05520143879984844
860.684 0.0418714387998486
860.973 0.05520143879984844
861.261 0.04853143879984871
861.55 0.07020143879984857
861.838 0.026871438799848477
862.127 0.056871438799848725
862.416 0.06353143879984839
862.704 0.05187143879984839
862.993 0.035201438799848425
863.283 0.03687143879984871
863.572 0.06187143879984862
863.86 0.07020143879984857
864.149 0.046871438799848494
864.437 0.0418714387998486
864.726 0.046871438799848494
865.014 0.03853143879984848
865.303 0.0585314387998485
865.591 0.046871438799848494
865.88 0.053531438799848605
866.168 0.05187143879984839
866.457 0.05520143879984844
866.747 0.05520143879984844
867.036 0.03353143879984859
867.324 0.045201438799848656
867.613 0.06187143879984862
867.901 0.043531438799848374
868.189 0.07187143879984842
868.478 0.045201438799848656
868.766 0.0585314387998485
869.055 0.06353143879984839
869.343 0.04853143879984871
869.631 0.053531438799848605
869.92 0.0585314387998485
870.208 0.04853143879984871
870.496 0.0418714387998486
870.785 0.05520143879984844
871.073 0.06187143879984862
871.361 0.060201438799848336
871.65 0.08020143879984837
871.938 0.03853143879984848
872.226 0.04853143879984871
872.514 0.0852014387998487
872.803 0.0418714387998486
873.091 0.05187143879984839
873.379 0.05020143879984855
873.667 0.04020143879984832
873.956 0.0585314387998485
874.244 0.0418714387998486
874.532 0.06353143879984839
874.82 0.04020143879984832
875.108 0.03853143879984848
875.397 0.0418714387998486
875.685 0.06520143879984867
875.973 0.053531438799848605
876.261 0.030201438799848532
876.549 0.05520143879984844
876.837 0.06687143879984851
877.125 0.05020143879984855
877.414 0.045201438799848656
877.702 0.05187143879984839
877.99 0.056871438799848725
878.278 0.03687143879984871
878.566 0.05187143879984839
878.854 0.06187143879984862
879.142 0.053531438799848605
879.43 0.05020143879984855
879.718 0.05187143879984839
880.004 0.04853143879984871
880.292 0.05187143879984839
880.58 0.08353143879984842
880.868 0.05187143879984839
881.156 0.07020143879984857
881.444 0.056871438799848725
881.732 0.05020143879984855
882.02 0.0585314387998485
882.308 0.0585314387998485
882.596 0.03687143879984871
882.884 0.04853143879984871
883.172 0.04853143879984871
883.458 0.056871438799848725
883.746 0.07353143879984864
884.034 0.06353143879984839
884.322 0.05520143879984844
884.609 0.06853143879984873
884.897 0.03187143879984837
885.185 0.07687143879984831
885.473 0.06187143879984862
885.761 0.05020143879984855
886.049 0.060201438799848336
886.335 0.04853143879984871
886.622 0.046871438799848494
886.91 0.043531438799848374
887.198 0.07687143879984831
887.486 0.06520143879984867
887.774 0.06353143879984839
888.061 0.03687143879984871
888.347 0.056871438799848725
888.635 0.06353143879984839
888.923 0.046871438799848494
889.21 0.046871438799848494
889.498 0.043531438799848374
889.786 0.06353143879984839
890.073 0.06520143879984867
890.359 0.056871438799848725
890.647 0.05520143879984844
890.935 0.05187143879984839
891.222 0.046871438799848494
891.51 0.060201438799848336
891.798 0.07687143879984831
892.083 0.0585314387998485
892.371 0.07020143879984857
892.659 0.0852014387998487
892.946 0.06187143879984862
893.234 0.060201438799848336
893.519 0.08187143879984865
893.807 0.056871438799848725
894.094 0.060201438799848336
894.382 0.04853143879984871
894.67 0.07187143879984842
894.955 0.06353143879984839
895.243 0.06520143879984867
895.53 0.07353143879984864
895.818 0.0585314387998485
896.105 0.043531438799848374
896.391 0.030201438799848532
896.678 0.05520143879984844
896.966 0.05187143879984839
897.253 0.08020143879984837
897.539 0.07020143879984857
897.826 0.06187143879984862
898.114 0.0418714387998486
898.401 0.06187143879984862
898.689 0.06187143879984862
898.974 0.060201438799848336
899.261 0.05020143879984855
899.549 0.06520143879984867
899.836 0.07353143879984864
900.122 0.07520143879984847
900.409 0.056871438799848725
900.696 0.046871438799848494
900.982 0.06520143879984867
901.269 0.06520143879984867
901.556 0.06187143879984862
901.844 0.06187143879984862
902.129 0.0852014387998487
902.417 0.09187143879984844
902.704 0.07020143879984857
902.991 0.07020143879984857
903.276 0.04853143879984871
903.564 0.06353143879984839
903.851 0.04853143879984871
904.136 0.05187143879984839
904.423 0.060201438799848336
904.711 0.07020143879984857
904.998 0.05020143879984855
905.283 0.06520143879984867
905.57 0.045201438799848656
905.858 0.07687143879984831
906.143 0.05520143879984844
906.43 0.03853143879984848
906.717 0.07187143879984842
907.002 0.04853143879984871
907.29 0.06687143879984851
907.577 0.056871438799848725
907.862 0.04853143879984871
908.149 0.07020143879984857
908.436 0.05020143879984855
908.721 0.07687143879984831
909.008 0.060201438799848336
909.295 0.05520143879984844
909.581 0.04020143879984832
909.868 0.056871438799848725
910.155 0.053531438799848605
910.44 0.05520143879984844
910.727 0.08187143879984865
911.014 0.06853143879984873
911.299 0.05520143879984844
911.586 0.05520143879984844
911.871 0.06520143879984867
912.158 0.07520143879984847
912.445 0.07687143879984831
912.73 0.06687143879984851
913.017 0.053531438799848605
913.304 0.07020143879984857
913.589 0.06353143879984839
913.876 0.05187143879984839
914.161 0.05187143879984839
914.448 0.045201438799848656
914.735 0.046871438799848494
915.02 0.06520143879984867
915.307 0.0585314387998485
915.591 0.056871438799848725
915.878 0.06853143879984873
916.165 0.08187143879984865
916.45 0.060201438799848336
916.737 0.08187143879984865
917.022 0.06187143879984862
917.309 0.07520143879984847
917.595 0.06353143879984839
917.88 0.060201438799848336
918.167 0.06520143879984867
918.452 0.07020143879984857
918.739 0.06853143879984873
919.024 0.08020143879984837
919.31 0.06520143879984867
919.597 0.06520143879984867
919.882 0.07020143879984857
920.169 0.06853143879984873
920.453 0.06187143879984862
920.74 0.05520143879984844
921.025 0.06187143879984862
921.312 0.056871438799848725
921.596 0.04853143879984871
921.883 0.07853143879984853
922.168 0.07187143879984842
922.454 0.06520143879984867
922.741 0.06687143879984851
923.026 0.07853143879984853
923.312 0.06353143879984839
923.597 0.045201438799848656
923.884 0.07687143879984831
924.168 0.07687143879984831
924.455 0.046871438799848494
924.74 0.09353143879984865
925.026 0.060201438799848336
925.311 0.07520143879984847
925.597 0.06187143879984862
925.882 0.08187143879984865
926.169 0.06353143879984839
926.453 0.056871438799848725
926.74 0.043531438799848374
927.024 0.06187143879984862
927.311 0.08687143879984854
927.595 0.053531438799848605
927.882 0.07187143879984842
928.166 0.05020143879984855
928.453 0.06687143879984851
928.737 0.07520143879984847
929.022 0.0585314387998485
929.308 0.07020143879984857
929.593 0.05020143879984855
929.879 0.0418714387998486
930.164 0.08687143879984854
930.45 0.06853143879984873
930.734 0.08353143879984842
931.021 0.05187143879984839
931.305 0.06687143879984851
931.592 0.06520143879984867
931.876 0.05187143879984839
932.16 0.06853143879984873
932.447 0.08187143879984865
932.731 0.07853143879984853
933.018 0.08687143879984854
933.302 0.07687143879984831
933.588 0.07853143879984853
933.873 0.08353143879984842
934.157 0.08187143879984865
934.443 0.03853143879984848
934.727 0.07853143879984853
935.014 0.0902014387998486
935.298 0.06853143879984873
935.582 0.07520143879984847
935.869 0.07687143879984831
936.153 0.06187143879984862
936.439 0.0585314387998485
936.723 0.06353143879984839
937.008 0.07020143879984857
937.294 0.06520143879984867
937.578 0.07020143879984857
937.864 0.07520143879984847
938.148 0.07020143879984857
938.433 0.07853143879984853
938.719 0.07853143879984853
939.003 0.06520143879984867
939.287 0.10853143879984833
939.573 0.08187143879984865
939.857 0.07853143879984853
940.143 0.06353143879984839
940.428 0.06853143879984873
940.712 0.06520143879984867
940.998 0.06687143879984851
941.282 0.0852014387998487
941.566 0.08187143879984865
941.852 0.07020143879984857
942.136 0.07520143879984847
942.42 0.08687143879984854
942.706 0.053531438799848605
942.99 0.08353143879984842
943.274 0.08020143879984837
943.56 0.06853143879984873
943.844 0.07020143879984857
944.128 0.09520143879984849
944.414 0.09687143879984833
944.698 0.09687143879984833
944.982 0.10853143879984833
945.268 0.07687143879984831
945.552 0.10187143879984867
945.836 0.06187143879984862
946.12 0.10187143879984867
946.406 0.08187143879984865
946.69 0.06853143879984873
946.974 0.05520143879984844
947.26 0.08187143879984865
947.544 0.0852014387998487
947.828 0.08020143879984837
948.114 0.09187143879984844
948.397 0.0852014387998487
948.681 0.08020143879984837
948.965 0.08353143879984842
949.251 0.10187143879984867
949.535 0.10687143879984856
949.819 0.05520143879984844
950.103 0.07687143879984831
950.388 0.0852014387998487
950.672 0.0852014387998487
950.956 0.06853143879984873
951.24 0.09187143879984844
951.525 0.09187143879984844
951.809 0.07687143879984831
952.093 0.07687143879984831
952.377 0.08020143879984837
952.662 0.09687143879984833
952.946 0.10020143879984839
953.23 0.07687143879984831
953.514 0.07853143879984853
953.799 0.09520143879984849
954.083 0.08353143879984842
954.367 0.11353143879984867
954.65 0.07853143879984853
954.934 0.09353143879984865
955.22 0.08687143879984854
955.503 0.07353143879984864
955.787 0.09187143879984844
956.071 0.08853143879984832
956.356 0.07353143879984864
956.64 0.10687143879984856
956.924 0.11020143879984862
957.207 0.06853143879984873
957.491 0.07853143879984853
957.774 0.11187143879984845
958.06 0.07520143879984847
958.343 0.06520143879984867
958.627 0.07853143879984853
958.911 0.09520143879984849
959.194 0.07853143879984853
959.48 0.0852014387998487
959.763 0.09353143879984865
960.047 0.10020143879984839
960.33 0.09187143879984844
960.614 0.09687143879984833
960.897 0.08353143879984842
961.182 0.09520143879984849
961.466 0.0852014387998487
961.749 0.08687143879984854
962.033 0.07853143879984853
962.316 0.07853143879984853
962.6 0.07020143879984857
962.883 0.07187143879984842
963.169 0.08020143879984837
963.452 0.09353143879984865
963.735 0.09353143879984865
964.019 0.06687143879984851
964.302 0.08353143879984842
964.586 0.09520143879984849
964.869 0.07853143879984853
965.152 0.07353143879984864
965.438 0.08853143879984832
965.721 0.10353143879984844
966.004 0.09520143879984849
966.288 0.08187143879984865
966.571 0.09520143879984849
966.854 0.0852014387998487
967.137 0.10020143879984839
967.421 0.09353143879984865
967.704 0.09353143879984865
967.987 0.09687143879984833
968.272 0.08853143879984832
968.556 0.09353143879984865
968.839 0.11520143879984851
969.122 0.07853143879984853
969.405 0.08687143879984854
969.689 0.08853143879984832
969.972 0.08853143879984832
970.255 0.08353143879984842
970.538 0.07353143879984864
970.821 0.10353143879984844
971.105 0.08687143879984854
971.388 0.10353143879984844
971.671 0.08020143879984837
971.954 0.07187143879984842
972.237 0.09853143879984855
972.52 0.0852014387998487
972.805 0.0852014387998487
973.088 0.06853143879984873
973.371 0.10520143879984872
973.655 0.07520143879984847
973.938 0.09187143879984844
974.221 0.0852014387998487
974.504 0.07853143879984853
974.787 0.11853143879984857
975.07 0.09353143879984865
975.353 0.08187143879984865
975.636 0.08687143879984854
975.919 0.08853143879984832
976.202 0.08353143879984842
976.485 0.08687143879984854
976.768 0.08853143879984832
977.051 0.09187143879984844
977.334 0.07687143879984831
977.617 0.10020143879984839
977.9 0.08687143879984854
978.183 0.10520143879984872
978.466 0.10187143879984867
978.749 0.0852014387998487
979.031 0.09853143879984855
979.314 0.08187143879984865
979.597 0.09687143879984833
979.88 0.09520143879984849
980.163 0.09853143879984855
980.446 0.08353143879984842
980.729 0.0902014387998486
981.01 0.0852014387998487
981.293 0.07520143879984847
981.575 0.10687143879984856
981.858 0.10020143879984839
982.141 0.08687143879984854
982.424 0.09687143879984833
982.707 0.07353143879984864
982.989 0.11187143879984845
983.272 0.09687143879984833
983.555 0.0852014387998487
983.838 0.07520143879984847
984.12 0.09353143879984865
984.403 0.08687143879984854
984.686 0.09520143879984849
984.969 0.11687143879984835
985.251 0.09187143879984844
985.532 0.08687143879984854
985.815 0.09520143879984849
986.098 0.07520143879984847
986.38 0.13187143879984847
986.663 0.09853143879984855
986.946 0.10020143879984839
987.228 0.08687143879984854
987.511 0.08687143879984854
987.794 0.09187143879984844
988.076 0.08353143879984842
988.357 0.10353143879984844
988.639 0.11687143879984835
988.922 0.09520143879984849
989.205 0.10520143879984872
989.487 0.08187143879984865
989.77 0.08020143879984837
990.052 0.0852014387998487
990.335 0.09353143879984865
990.616 0.07353143879984864
990.898 0.09687143879984833
991.181 0.09687143879984833
991.463 0.08853143879984832
991.746 0.09687143879984833
992.028 0.0902014387998486
992.311 0.09353143879984865
992.591 0.11020143879984862
992.874 0.10187143879984867
993.156 0.09520143879984849
993.439 0.07853143879984853
993.721 0.11020143879984862
994.003 0.08687143879984854
994.284 0.0852014387998487
994.566 0.10020143879984839
994.849 0.09853143879984855
995.131 0.08853143879984832
995.414 0.08187143879984865
995.696 0.10520143879984872
995.976 0.09687143879984833
996.259 0.08853143879984832
996.541 0.07353143879984864
996.823 0.11520143879984851
997.106 0.09853143879984855
997.386 0.11520143879984851
997.669 0.09687143879984833
997.951 0.10353143879984844
998.233 0.0902014387998486
998.516 0.10687143879984856
998.796 0.09520143879984849
999.078 0.08853143879984832
999.36 0.09187143879984844
999.643 0.08020143879984837
999.923 0.10687143879984856
1000.21 0.0902014387998486
1000.49 0.1202014387998484
1000.77 0.0902014387998486
1001.05 0.09520143879984849
1001.33 0.09687143879984833
1001.61 0.06187143879984862
1001.9 0.07520143879984847
1002.18 0.10187143879984867
1002.46 0.08853143879984832
1002.74 0.10187143879984867
1003.02 0.09520143879984849
1003.3 0.10187143879984867
1003.59 0.06520143879984867
1003.87 0.09853143879984855
1004.15 0.07520143879984847
1004.43 0.08687143879984854
1004.71 0.07520143879984847
1004.99 0.11520143879984851
1005.28 0.10187143879984867
1005.56 0.10687143879984856
1005.84 0.10687143879984856
1006.12 0.09353143879984865
1006.4 0.08853143879984832
1006.68 0.11187143879984845
1006.96 0.09353143879984865
1007.24 0.09687143879984833
1007.53 0.0902014387998486
1007.81 0.11353143879984867
1008.09 0.08853143879984832
1008.37 0.09187143879984844
1008.65 0.07187143879984842
1008.93 0.09687143879984833
1009.21 0.08187143879984865
1009.5 0.0852014387998487
1009.78 0.09687143879984833
1010.06 0.08687143879984854
1010.34 0.060201438799848336
1010.62 0.08187143879984865
1010.9 0.10687143879984856
1011.18 0.10853143879984833
1011.47 0.0852014387998487
1011.75 0.0902014387998486
1012.03 0.09187143879984844
1012.31 0.07187143879984842
1012.59 0.08687143879984854
1012.87 0.07853143879984853
1013.15 0.09187143879984844
1013.43 0.10353143879984844
1013.72 0.10353143879984844
1014.0 0.10520143879984872
1014.28 0.10020143879984839
1014.56 0.08687143879984854
1014.84 0.09687143879984833
1015.12 0.11520143879984851
1015.4 0.0902014387998486
1015.68 0.10687143879984856
1015.96 0.10020143879984839
1016.24 0.09187143879984844
1016.53 0.09853143879984855
1016.81 0.08687143879984854
1017.09 0.08853143879984832
1017.37 0.09187143879984844
1017.65 0.10853143879984833
1017.93 0.09353143879984865
1018.21 0.10520143879984872
1018.49 0.07520143879984847
1018.77 0.08353143879984842
1019.05 0.10020143879984839
1019.33 0.10020143879984839
1019.61 0.09853143879984855
1019.9 0.10687143879984856
1020.18 0.09187143879984844
1020.46 0.09687143879984833
1020.74 0.08353143879984842
1021.02 0.07853143879984853
1021.3 0.0902014387998486
1021.58 0.10520143879984872
1021.86 0.09853143879984855
1022.14 0.09520143879984849
1022.42 0.09853143879984855
1022.7 0.08020143879984837
1022.98 0.09853143879984855
1023.26 0.08187143879984865
1023.54 0.11187143879984845
1023.83 0.08687143879984854
1024.11 0.10520143879984872
1024.39 0.0852014387998487
1024.67 0.11020143879984862
1024.95 0.09187143879984844
1025.23 0.07853143879984853
1025.51 0.08187143879984865
1025.79 0.09187143879984844
1026.07 0.09687143879984833
1026.35 0.09853143879984855
1026.63 0.10187143879984867
1026.91 0.11520143879984851
1027.19 0.09687143879984833
1027.47 0.10020143879984839
1027.75 0.10520143879984872
1028.03 0.12520143879984874
1028.31 0.09687143879984833
1028.59 0.060201438799848336
1028.87 0.08853143879984832
1029.15 0.10687143879984856
1029.43 0.06687143879984851
1029.71 0.10187143879984867
1030.0 0.10687143879984856
1030.27 0.10520143879984872
1030.56 0.08853143879984832
1030.84 0.1335314387998487
1031.12 0.08187143879984865
1031.4 0.07520143879984847
1031.68 0.05187143879984839
1031.96 0.10187143879984867
1032.24 0.10353143879984844
1032.52 0.07520143879984847
1032.8 0.10353143879984844
1033.08 0.10687143879984856
1033.36 0.10187143879984867
1033.64 0.07853143879984853
1033.92 0.10187143879984867
1034.2 0.09853143879984855
1034.48 0.11687143879984835
1034.76 0.10353143879984844
1035.04 0.09687143879984833
1035.32 0.08687143879984854
1035.6 0.09687143879984833
1035.88 0.09187143879984844
1036.16 0.10353143879984844
1036.44 0.09353143879984865
1036.72 0.07687143879984831
1037.0 0.10687143879984856
1037.28 0.10020143879984839
1037.56 0.09353143879984865
1037.84 0.11853143879984857
1038.12 0.11353143879984867
1038.4 0.11853143879984857
1038.68 0.09520143879984849
1038.96 0.09687143879984833
1039.24 0.09187143879984844
1039.52 0.10353143879984844
1039.79 0.11020143879984862
1040.08 0.09187143879984844
1040.35 0.09853143879984855
1040.64 0.07687143879984831
1040.91 0.06353143879984839
1041.19 0.0902014387998486
1041.47 0.08853143879984832
1041.75 0.12187143879984869
1042.03 0.10520143879984872
1042.31 0.09520143879984849
1042.59 0.11853143879984857
1042.87 0.11187143879984845
1043.15 0.12187143879984869
1043.43 0.09187143879984844
1043.71 0.09687143879984833
1043.99 0.11187143879984845
1044.27 0.11353143879984867
1044.55 0.12520143879984874
1044.83 0.11353143879984867
1045.11 0.08853143879984832
1045.39 0.10353143879984844
1045.67 0.14020143879984842
1045.95 0.11020143879984862
1046.23 0.10853143879984833
1046.51 0.09520143879984849
1046.79 0.08853143879984832
1047.06 0.10853143879984833
1047.34 0.10187143879984867
1047.62 0.10520143879984872
1047.9 0.11020143879984862
1048.18 0.09853143879984855
1048.46 0.09853143879984855
1048.74 0.10687143879984856
1049.02 0.10187143879984867
1049.3 0.09187143879984844
1049.58 0.08687143879984854
1049.86 0.12353143879984846
1050.14 0.09353143879984865
1050.42 0.10353143879984844
1050.7 0.10187143879984867
1050.97 0.0852014387998487
1051.25 0.11187143879984845
1051.53 0.11187143879984845
1051.81 0.11520143879984851
1052.09 0.09687143879984833
1052.37 0.12187143879984869
1052.65 0.13187143879984847
1052.93 0.1202014387998484
1053.21 0.1202014387998484
1053.49 0.12187143879984869
1053.77 0.11020143879984862
1054.05 0.10853143879984833
1054.32 0.10187143879984867
1054.6 0.09353143879984865
1054.88 0.10020143879984839
1055.16 0.11353143879984867
1055.44 0.0902014387998486
1055.72 0.11353143879984867
1056.0 0.10520143879984872
1056.28 0.11520143879984851
1056.56 0.10520143879984872
1056.84 0.10187143879984867
1057.11 0.10353143879984844
1057.39 0.10187143879984867
1057.67 0.11687143879984835
1057.95 0.11687143879984835
1058.23 0.10853143879984833
1058.51 0.0852014387998487
1058.79 0.11520143879984851
1059.07 0.10187143879984867
1059.34 0.12353143879984846
1059.62 0.10353143879984844
1059.9 0.11353143879984867
1060.18 0.09187143879984844
1060.46 0.12520143879984874
1060.74 0.11853143879984857
1061.02 0.09353143879984865
1061.3 0.0902014387998486
1061.57 0.09853143879984855
1061.85 0.11353143879984867
1062.13 0.11187143879984845
1062.41 0.09520143879984849
1062.69 0.09187143879984844
1062.97 0.11020143879984862
1063.25 0.12520143879984874
1063.53 0.10353143879984844
1063.8 0.10353143879984844
1064.08 0.11187143879984845
1064.36 0.1202014387998484
1064.64 0.10187143879984867
1064.92 0.11020143879984862
1065.2 0.10687143879984856
1065.47 0.11353143879984867
1065.75 0.11187143879984845
1066.03 0.10853143879984833
1066.31 0.11187143879984845
1066.59 0.10520143879984872
1066.87 0.10853143879984833
1067.14 0.09687143879984833
1067.42 0.08187143879984865
1067.7 0.11353143879984867
1067.98 0.12687143879984858
1068.26 0.09353143879984865
1068.54 0.10187143879984867
1068.82 0.12353143879984846
1069.09 0.10520143879984872
1069.37 0.11353143879984867
1069.65 0.10520143879984872
1069.93 0.10687143879984856
1070.21 0.08853143879984832
1070.48 0.07687143879984831
1070.76 0.13020143879984863
1071.04 0.09687143879984833
1071.32 0.12520143879984874
1071.6 0.10020143879984839
1071.87 0.11853143879984857
1072.15 0.11853143879984857
1072.43 0.10020143879984839
1072.71 0.10020143879984839
1072.99 0.10520143879984872
1073.26 0.10853143879984833
1073.54 0.10520143879984872
1073.82 0.11353143879984867
1074.1 0.12187143879984869
1074.38 0.11520143879984851
1074.65 0.09187143879984844
1074.93 0.11687143879984835
1075.21 0.10020143879984839
1075.49 0.10520143879984872
1075.77 0.12187143879984869
1076.05 0.11687143879984835
1076.32 0.09187143879984844
1076.6 0.11853143879984857
1076.88 0.10187143879984867
1077.16 0.11853143879984857
1077.43 0.1202014387998484
1077.71 0.09187143879984844
1077.99 0.12187143879984869
1078.27 0.11187143879984845
1078.55 0.1202014387998484
1078.82 0.09353143879984865
1079.1 0.12353143879984846
1079.38 0.10020143879984839
1079.66 0.10353143879984844
1079.93 0.11520143879984851
1080.21 0.11020143879984862
1080.49 0.11687143879984835
1080.77 0.10687143879984856
1081.05 0.1202014387998484
1081.32 0.10020143879984839
1081.6 0.09687143879984833
1081.88 0.11020143879984862
1082.16 0.09853143879984855
1082.43 0.11353143879984867
1082.71 0.1202014387998484
1082.99 0.12520143879984874
1083.27 0.0852014387998487
1083.54 0.09353143879984865
1083.82 0.0902014387998486
1084.1 0.07353143879984864
1084.38 0.14020143879984842
1084.65 0.11520143879984851
1084.93 0.09353143879984865
1085.21 0.11853143879984857
1085.49 0.09353143879984865
1085.76 0.12187143879984869
1086.04 0.10020143879984839
1086.32 0.10187143879984867
1086.6 0.11020143879984862
1086.87 0.11187143879984845
1087.15 0.12520143879984874
1087.43 0.11020143879984862
1087.71 0.11187143879984845
1087.98 0.10520143879984872
1088.26 0.08687143879984854
1088.54 0.13520143879984853
1088.81 0.11687143879984835
1089.09 0.10020143879984839
1089.37 0.12187143879984869
1089.65 0.1202014387998484
1089.92 0.12520143879984874
1090.2 0.11520143879984851
1090.48 0.07520143879984847
1090.75 0.11687143879984835
1091.03 0.10187143879984867
