# Created: 2019-11-28 14:34:54.267456
# rshift intensity
86.6238 0.046660000000000146
86.9486 0.050000000000000266
87.2712 0.036659999999999915
87.596 0.05333000000000032
87.9207 0.040000000000000036
88.2454 0.036659999999999915
88.5702 0.036659999999999915
88.8927 0.036659999999999915
89.2174 0.050000000000000266
89.5421 0.020000000000000018
89.8668 0.03000000000000025
90.1914 0.05333000000000032
90.514 0.050000000000000266
90.8386 0.04333000000000009
91.1632 0.05333000000000032
91.4878 0.04333000000000009
91.8124 0.06000000000000005
92.1349 0.06000000000000005
92.4595 0.05333000000000032
92.7841 0.06666000000000016
93.1086 0.04333000000000009
93.431 0.050000000000000266
93.7556 0.040000000000000036
94.0801 0.050000000000000266
94.4046 0.036659999999999915
94.727 0.03000000000000025
95.0515 0.026660000000000128
95.376 0.026660000000000128
95.7004 0.06666000000000016
96.0227 0.013330000000000286
96.3472 0.07000000000000028
96.6716 0.033330000000000304
96.9961 0.046660000000000146
97.3183 0.050000000000000266
97.6427 0.020000000000000018
97.9671 0.023330000000000073
98.2915 0.036659999999999915
98.6137 0.03000000000000025
98.9381 0.03000000000000025
99.2624 0.06000000000000005
99.5868 0.046660000000000146
99.909 0.04333000000000009
100.233 0.04333000000000009
100.558 0.05665999999999993
100.88 0.05333000000000032
101.204 0.040000000000000036
101.528 0.07665999999999995
101.853 0.06000000000000005
102.175 0.06333000000000011
102.499 0.026660000000000128
102.823 0.04333000000000009
103.145 0.05333000000000032
103.469 0.04333000000000009
103.794 0.04333000000000009
104.116 0.040000000000000036
104.44 0.05665999999999993
104.764 0.050000000000000266
105.086 0.04333000000000009
105.41 0.05333000000000032
105.734 0.023330000000000073
106.056 0.04333000000000009
106.38 0.06666000000000016
106.704 0.05333000000000032
107.026 0.046660000000000146
107.35 0.036659999999999915
107.674 0.023330000000000073
107.996 0.04333000000000009
108.32 0.05665999999999993
108.644 0.050000000000000266
108.966 0.036659999999999915
109.29 0.033330000000000304
109.614 0.026660000000000128
109.936 0.036659999999999915
110.26 0.036659999999999915
110.584 0.026660000000000128
110.906 0.050000000000000266
111.23 0.06000000000000005
111.552 0.023330000000000073
111.875 0.040000000000000036
112.199 0.06333000000000011
112.521 0.06000000000000005
112.845 0.050000000000000266
113.169 0.046660000000000146
113.491 0.05333000000000032
113.814 0.050000000000000266
114.136 0.05333000000000032
114.46 0.05333000000000032
114.784 0.036659999999999915
115.105 0.04333000000000009
115.429 0.050000000000000266
115.751 0.06000000000000005
116.075 0.046660000000000146
116.398 0.050000000000000266
116.72 0.05333000000000032
117.044 0.033330000000000304
117.365 0.04333000000000009
117.689 0.05333000000000032
118.013 0.06666000000000016
118.334 0.050000000000000266
118.658 0.050000000000000266
118.979 0.06000000000000005
119.303 0.040000000000000036
119.625 0.07000000000000028
119.948 0.026660000000000128
120.272 0.07333000000000034
120.593 0.05333000000000032
120.917 0.05333000000000032
121.238 0.040000000000000036
121.562 0.04333000000000009
121.883 0.046660000000000146
122.207 0.033330000000000304
122.528 0.023330000000000073
122.852 0.040000000000000036
123.175 0.05333000000000032
123.497 0.026660000000000128
123.82 0.046660000000000146
124.142 0.01666000000000034
124.465 0.036659999999999915
124.786 0.046660000000000146
125.11 0.05665999999999993
125.431 0.050000000000000266
125.755 0.033330000000000304
126.076 0.040000000000000036
126.399 0.046660000000000146
126.721 0.01666000000000034
127.044 0.04333000000000009
127.365 0.046660000000000146
127.689 0.04333000000000009
128.01 0.020000000000000018
128.333 0.04333000000000009
128.654 0.040000000000000036
128.978 0.01666000000000034
129.299 0.04333000000000009
129.622 0.05333000000000032
129.943 0.03000000000000025
130.267 0.050000000000000266
130.588 0.033330000000000304
130.911 0.036659999999999915
131.232 0.05333000000000032
131.555 0.033330000000000304
131.876 0.036659999999999915
132.2 0.04333000000000009
132.521 0.05333000000000032
132.844 0.036659999999999915
133.165 0.06333000000000011
133.488 0.040000000000000036
133.809 0.040000000000000036
134.132 0.046660000000000146
134.453 0.05665999999999993
134.774 0.06000000000000005
135.097 0.026660000000000128
135.418 0.023330000000000073
135.741 0.040000000000000036
136.062 0.046660000000000146
136.385 0.046660000000000146
136.706 0.040000000000000036
137.029 0.040000000000000036
137.35 0.01666000000000034
137.671 0.04333000000000009
137.994 0.050000000000000266
138.315 0.050000000000000266
138.638 0.04333000000000009
138.959 0.033330000000000304
139.282 0.04333000000000009
139.603 0.07000000000000028
139.923 0.046660000000000146
140.246 0.07665999999999995
140.567 0.046660000000000146
140.89 0.023330000000000073
141.211 0.05333000000000032
141.532 0.026660000000000128
141.854 0.05333000000000032
142.175 0.07000000000000028
142.498 0.03000000000000025
142.819 0.046660000000000146
143.139 0.05333000000000032
143.462 0.05665999999999993
143.783 0.033330000000000304
144.106 0.036659999999999915
144.426 0.010000000000000231
144.747 0.040000000000000036
145.07 0.040000000000000036
145.39 0.033330000000000304
145.711 0.013330000000000286
146.034 0.05665999999999993
146.354 0.04333000000000009
146.675 0.036659999999999915
146.998 0.040000000000000036
147.318 0.033330000000000304
147.641 0.026660000000000128
147.961 0.050000000000000266
148.282 0.020000000000000018
148.605 0.040000000000000036
148.925 0.046660000000000146
149.246 0.05333000000000032
149.568 0.05333000000000032
149.889 0.050000000000000266
150.209 0.033330000000000304
150.532 0.023330000000000073
150.852 0.026660000000000128
151.172 0.06000000000000005
151.495 0.05665999999999993
151.815 0.050000000000000266
152.136 0.046660000000000146
152.458 0.026660000000000128
152.779 0.033330000000000304
153.099 0.04333000000000009
153.422 0.050000000000000266
153.742 0.023330000000000073
154.062 0.040000000000000036
154.382 0.023330000000000073
154.705 0.033330000000000304
155.025 0.03000000000000025
155.345 0.03000000000000025
155.668 0.046660000000000146
155.988 0.04333000000000009
156.308 0.036659999999999915
156.631 0.04333000000000009
156.951 0.046660000000000146
157.271 0.050000000000000266
157.591 0.03000000000000025
157.914 0.033330000000000304
158.234 0.003330000000000055
158.554 0.01666000000000034
158.874 0.026660000000000128
159.197 0.023330000000000073
159.517 0.026660000000000128
159.837 0.046660000000000146
160.159 0.046660000000000146
160.479 0.033330000000000304
160.799 0.033330000000000304
161.119 0.05333000000000032
161.441 0.04333000000000009
161.762 0.026660000000000128
162.082 0.020000000000000018
162.402 0.05665999999999993
162.724 0.050000000000000266
163.044 0.020000000000000018
163.364 0.036659999999999915
163.684 0.026660000000000128
164.004 0.033330000000000304
164.326 0.046660000000000146
164.646 0.033330000000000304
164.966 0.04333000000000009
165.286 0.033330000000000304
165.608 0.05665999999999993
165.928 0.013330000000000286
166.248 0.033330000000000304
166.568 0.046660000000000146
166.887 0.03000000000000025
167.209 0.050000000000000266
167.529 0.036659999999999915
167.849 0.05333000000000032
168.169 0.020000000000000018
168.489 0.036659999999999915
168.811 0.040000000000000036
169.131 0.036659999999999915
169.45 0.01666000000000034
169.77 0.04333000000000009
170.09 0.036659999999999915
170.412 0.050000000000000266
170.732 0.033330000000000304
171.051 0.026660000000000128
171.371 0.040000000000000036
171.691 0.00666000000000011
172.01 0.036659999999999915
172.332 0.020000000000000018
172.652 0.033330000000000304
172.972 0.03000000000000025
173.291 0.036659999999999915
173.611 0.05333000000000032
173.931 0.026660000000000128
174.252 0.046660000000000146
174.572 0.036659999999999915
174.892 0.040000000000000036
175.211 0.06000000000000005
175.531 0.050000000000000266
175.85 0.036659999999999915
176.17 0.050000000000000266
176.492 0.046660000000000146
176.811 0.040000000000000036
177.131 0.050000000000000266
177.45 0.026660000000000128
177.77 0.036659999999999915
178.089 0.050000000000000266
178.409 0.04333000000000009
178.728 0.026660000000000128
179.05 0.046660000000000146
179.369 0.06000000000000005
179.689 0.033330000000000304
180.008 0.050000000000000266
180.327 0.033330000000000304
180.647 0.036659999999999915
180.966 0.03000000000000025
181.286 0.04333000000000009
181.605 0.013330000000000286
181.924 0.046660000000000146
182.246 0.05333000000000032
182.565 0.010000000000000231
182.885 0.04333000000000009
183.204 0.05333000000000032
183.523 0.040000000000000036
183.843 0.036659999999999915
184.162 0.040000000000000036
184.481 0.033330000000000304
184.8 0.05665999999999993
185.12 0.023330000000000073
185.439 0.03000000000000025
185.758 0.046660000000000146
186.077 0.04333000000000009
186.397 0.04333000000000009
186.716 0.023330000000000073
187.037 0.04333000000000009
187.356 0.026660000000000128
187.675 0.050000000000000266
187.995 0.023330000000000073
188.314 0.036659999999999915
188.633 0.05665999999999993
188.952 0.04333000000000009
189.271 0.03000000000000025
189.59 0.020000000000000018
189.909 0.040000000000000036
190.228 0.03000000000000025
190.548 0.040000000000000036
190.867 0.033330000000000304
191.186 0.03000000000000025
191.505 0.05665999999999993
191.824 0.01666000000000034
192.143 0.04333000000000009
192.462 0.040000000000000036
192.781 0.04333000000000009
193.1 0.03000000000000025
193.419 0.01666000000000034
193.738 0.040000000000000036
194.057 0.023330000000000073
194.376 0.05665999999999993
194.694 0.020000000000000018
195.013 0.036659999999999915
195.332 0.040000000000000036
195.651 0.046660000000000146
195.97 0.03000000000000025
196.289 0.040000000000000036
196.608 0.033330000000000304
196.927 0.04333000000000009
197.246 0.046660000000000146
197.564 0.01666000000000034
197.883 0.046660000000000146
198.202 0.033330000000000304
198.521 0.05665999999999993
198.84 0.040000000000000036
199.158 0.020000000000000018
199.477 0.05333000000000032
199.796 0.03000000000000025
200.115 0.033330000000000304
200.431 0.036659999999999915
200.75 0.023330000000000073
201.069 0.033330000000000304
201.387 0.05665999999999993
201.706 0.03000000000000025
202.025 0.05333000000000032
202.343 0.050000000000000266
202.662 0.040000000000000036
202.981 0.05333000000000032
203.299 0.026660000000000128
203.618 0.036659999999999915
203.937 0.040000000000000036
204.255 0.033330000000000304
204.574 0.03000000000000025
204.89 0.04333000000000009
205.209 0.040000000000000036
205.527 0.023330000000000073
205.846 0.03000000000000025
206.165 0.026660000000000128
206.483 0.05333000000000032
206.802 0.03000000000000025
207.12 0.023330000000000073
207.439 0.040000000000000036
207.757 0.020000000000000018
208.073 0.023330000000000073
208.392 0.046660000000000146
208.71 0.023330000000000073
209.029 0.040000000000000036
209.347 0.036659999999999915
209.666 0.06000000000000005
209.984 0.05665999999999993
210.302 0.026660000000000128
210.619 0.040000000000000036
210.937 0.036659999999999915
211.255 0.03000000000000025
211.574 0.036659999999999915
211.892 0.03000000000000025
212.21 0.05665999999999993
212.529 0.04333000000000009
212.845 0.050000000000000266
213.163 0.036659999999999915
213.482 0.050000000000000266
213.8 0.040000000000000036
214.118 0.023330000000000073
214.436 0.03000000000000025
214.755 0.026660000000000128
215.071 0.026660000000000128
215.389 0.033330000000000304
215.707 0.036659999999999915
216.025 0.040000000000000036
216.344 0.050000000000000266
216.66 0.03000000000000025
216.978 0.050000000000000266
217.296 0.04333000000000009
217.614 0.046660000000000146
217.932 0.033330000000000304
218.25 0.010000000000000231
218.566 0.03000000000000025
218.884 0.05333000000000032
219.203 0.06000000000000005
219.521 0.046660000000000146
219.839 0.036659999999999915
220.155 0.040000000000000036
220.473 0.07333000000000034
220.791 0.023330000000000073
221.109 0.06333000000000011
221.425 0.05333000000000032
221.743 0.033330000000000304
222.061 0.046660000000000146
222.379 0.046660000000000146
222.697 0.050000000000000266
223.013 0.06333000000000011
223.33 0.07665999999999995
223.648 0.06666000000000016
223.966 0.033330000000000304
224.282 0.040000000000000036
224.6 0.06333000000000011
224.918 0.05333000000000032
225.236 0.040000000000000036
225.552 0.05665999999999993
225.869 0.050000000000000266
226.187 0.06000000000000005
226.505 0.050000000000000266
226.821 0.05333000000000032
227.139 0.050000000000000266
227.457 0.036659999999999915
227.774 0.05333000000000032
228.09 0.046660000000000146
228.408 0.06333000000000011
228.726 0.050000000000000266
229.043 0.06000000000000005
229.359 0.046660000000000146
229.677 0.05333000000000032
229.994 0.026660000000000128
230.31 0.036659999999999915
230.628 0.06333000000000011
230.945 0.036659999999999915
231.261 0.036659999999999915
231.579 0.046660000000000146
231.896 0.050000000000000266
232.214 0.050000000000000266
232.529 0.04333000000000009
232.847 0.046660000000000146
233.165 0.05333000000000032
233.48 0.050000000000000266
233.798 0.050000000000000266
234.115 0.050000000000000266
234.431 0.050000000000000266
234.748 0.036659999999999915
235.066 0.040000000000000036
235.381 0.05665999999999993
235.699 0.040000000000000036
236.016 0.033330000000000304
236.332 0.046660000000000146
236.649 0.05665999999999993
236.967 0.050000000000000266
237.282 0.020000000000000018
237.6 0.05665999999999993
237.917 0.040000000000000036
238.232 0.04333000000000009
238.55 0.03000000000000025
238.867 0.05665999999999993
239.183 0.033330000000000304
239.5 0.026660000000000128
239.817 0.036659999999999915
240.133 0.026660000000000128
240.45 0.036659999999999915
240.765 0.07665999999999995
241.083 0.046660000000000146
241.4 0.06000000000000005
241.715 0.04333000000000009
242.032 0.046660000000000146
242.35 0.040000000000000036
242.665 0.050000000000000266
242.982 0.05333000000000032
243.297 0.036659999999999915
243.615 0.05333000000000032
243.932 0.050000000000000266
244.247 0.036659999999999915
244.564 0.04333000000000009
244.879 0.036659999999999915
245.197 0.050000000000000266
245.514 0.020000000000000018
245.829 0.023330000000000073
246.146 0.020000000000000018
246.461 0.023330000000000073
246.778 0.05333000000000032
247.095 0.03000000000000025
247.41 0.026660000000000128
247.728 0.06333000000000011
248.043 0.033330000000000304
248.36 0.040000000000000036
248.675 0.00666000000000011
248.992 0.023330000000000073
249.307 0.06000000000000005
249.624 0.04333000000000009
249.941 0.040000000000000036
250.256 0.05333000000000032
250.573 0.023330000000000073
250.888 0.05333000000000032
251.205 0.033330000000000304
251.519 0.040000000000000036
251.836 0.036659999999999915
252.151 0.040000000000000036
252.468 0.036659999999999915
252.783 0.050000000000000266
253.1 0.036659999999999915
253.417 0.050000000000000266
253.732 0.05333000000000032
254.049 0.05333000000000032
254.363 0.026660000000000128
254.68 0.05665999999999993
254.995 0.03000000000000025
255.312 0.06333000000000011
255.627 0.026660000000000128
255.944 0.04333000000000009
256.258 0.036659999999999915
256.575 0.033330000000000304
256.89 0.04333000000000009
257.207 0.040000000000000036
257.521 0.046660000000000146
257.838 0.023330000000000073
258.153 0.033330000000000304
258.469 0.036659999999999915
258.784 0.06666000000000016
259.101 0.023330000000000073
259.415 0.01666000000000034
259.732 0.046660000000000146
260.047 0.033330000000000304
260.363 0.026660000000000128
260.678 0.04333000000000009
260.993 0.046660000000000146
261.309 0.036659999999999915
261.624 0.05333000000000032
261.94 0.05333000000000032
262.255 0.06000000000000005
262.572 0.033330000000000304
262.886 0.026660000000000128
263.203 0.03000000000000025
263.517 0.020000000000000018
263.834 0.046660000000000146
264.148 0.023330000000000073
264.463 0.050000000000000266
264.779 0.04333000000000009
265.094 0.06000000000000005
265.41 0.036659999999999915
265.724 0.06333000000000011
266.041 0.03000000000000025
266.355 0.046660000000000146
266.67 0.05333000000000032
266.986 0.04333000000000009
267.3 0.04333000000000009
267.617 0.04333000000000009
267.931 0.040000000000000036
268.248 0.06000000000000005
268.562 0.05665999999999993
268.876 0.023330000000000073
269.193 0.01666000000000034
269.507 0.023330000000000073
269.823 0.036659999999999915
270.138 0.03000000000000025
270.452 0.046660000000000146
270.768 0.023330000000000073
271.082 0.046660000000000146
271.397 0.05665999999999993
271.713 0.050000000000000266
272.027 0.033330000000000304
272.343 0.05333000000000032
272.657 0.023330000000000073
272.972 0.033330000000000304
273.288 0.036659999999999915
273.602 0.04333000000000009
273.916 0.046660000000000146
274.232 0.040000000000000036
274.546 0.050000000000000266
274.863 0.050000000000000266
275.177 0.05333000000000032
275.491 0.033330000000000304
275.807 0.036659999999999915
276.121 0.03000000000000025
276.435 0.05665999999999993
276.751 0.050000000000000266
277.065 0.033330000000000304
277.379 0.046660000000000146
277.695 0.05333000000000032
278.009 0.06333000000000011
278.323 0.06000000000000005
278.639 0.026660000000000128
278.953 0.023330000000000073
279.267 0.050000000000000266
279.583 0.036659999999999915
279.897 0.05665999999999993
280.211 0.050000000000000266
280.525 0.06666000000000016
280.841 0.050000000000000266
281.155 0.036659999999999915
281.469 0.04333000000000009
281.785 0.036659999999999915
282.099 0.040000000000000036
282.412 0.046660000000000146
282.728 0.05333000000000032
283.042 0.050000000000000266
283.356 0.04333000000000009
283.67 0.05665999999999993
283.986 0.050000000000000266
284.299 0.05665999999999993
284.613 0.06000000000000005
284.929 0.046660000000000146
285.243 0.04333000000000009
285.556 0.04333000000000009
285.87 0.033330000000000304
286.186 0.036659999999999915
286.5 0.03000000000000025
286.813 0.046660000000000146
287.127 0.05665999999999993
287.443 0.046660000000000146
287.756 0.06000000000000005
288.07 0.07665999999999995
288.384 0.01666000000000034
288.699 0.06333000000000011
289.013 0.040000000000000036
289.327 0.036659999999999915
289.64 0.050000000000000266
289.956 0.050000000000000266
290.27 0.013330000000000286
290.583 0.033330000000000304
290.897 0.05665999999999993
291.21 0.046660000000000146
291.526 0.05333000000000032
291.839 0.06333000000000011
292.153 0.026660000000000128
292.466 0.020000000000000018
292.782 0.06333000000000011
293.095 0.036659999999999915
293.409 0.06333000000000011
293.722 0.05333000000000032
294.036 0.06000000000000005
294.351 0.023330000000000073
294.665 0.07000000000000028
294.978 0.050000000000000266
295.291 0.050000000000000266
295.605 0.05333000000000032
295.92 0.05665999999999993
296.234 0.033330000000000304
296.547 0.046660000000000146
296.86 0.036659999999999915
297.174 0.033330000000000304
297.487 0.050000000000000266
297.802 0.05665999999999993
298.116 0.05665999999999993
298.429 0.06000000000000005
298.742 0.04333000000000009
299.056 0.06000000000000005
299.369 0.07333000000000034
299.684 0.07333000000000034
299.997 0.03000000000000025
300.311 0.05665999999999993
300.624 0.036659999999999915
300.937 0.036659999999999915
301.25 0.023330000000000073
301.564 0.01666000000000034
301.879 0.050000000000000266
302.192 0.040000000000000036
302.505 0.06666000000000016
302.818 0.06333000000000011
303.131 0.046660000000000146
303.445 0.05665999999999993
303.758 0.03000000000000025
304.071 0.06666000000000016
304.386 0.06666000000000016
304.699 0.050000000000000266
305.012 0.05665999999999993
305.325 0.06000000000000005
305.638 0.050000000000000266
305.951 0.040000000000000036
306.264 0.03000000000000025
306.577 0.04333000000000009
306.89 0.06000000000000005
307.203 0.06000000000000005
307.518 0.050000000000000266
307.831 0.04333000000000009
308.144 0.050000000000000266
308.457 0.046660000000000146
308.77 0.05333000000000032
309.083 0.07665999999999995
309.396 0.06666000000000016
309.709 0.06666000000000016
310.022 0.04333000000000009
310.335 0.06333000000000011
310.648 0.04333000000000009
310.961 0.07000000000000028
311.273 0.026660000000000128
311.588 0.06666000000000016
311.901 0.06333000000000011
312.214 0.05333000000000032
312.527 0.06000000000000005
312.84 0.07000000000000028
313.152 0.07000000000000028
313.465 0.05665999999999993
313.778 0.07333000000000034
314.091 0.050000000000000266
314.404 0.07000000000000028
314.716 0.06333000000000011
315.029 0.08666000000000018
315.342 0.06666000000000016
315.654 0.06666000000000016
315.967 0.05665999999999993
316.28 0.04333000000000009
316.593 0.07333000000000034
316.905 0.09665999999999997
317.218 0.08000000000000007
317.531 0.08333000000000013
317.843 0.06333000000000011
318.156 0.06333000000000011
318.468 0.06333000000000011
318.781 0.03000000000000025
319.094 0.05665999999999993
319.406 0.05665999999999993
319.719 0.06333000000000011
320.031 0.07000000000000028
320.344 0.046660000000000146
320.656 0.06666000000000016
320.969 0.050000000000000266
321.281 0.06666000000000016
321.594 0.07333000000000034
321.906 0.07665999999999995
322.219 0.07333000000000034
322.531 0.05333000000000032
322.844 0.04333000000000009
323.156 0.07333000000000034
323.469 0.07333000000000034
323.781 0.07000000000000028
324.094 0.07333000000000034
324.406 0.07333000000000034
324.719 0.07665999999999995
325.031 0.05665999999999993
325.341 0.07333000000000034
325.654 0.09665999999999997
325.966 0.08333000000000013
326.278 0.07665999999999995
326.591 0.046660000000000146
326.903 0.07333000000000034
327.215 0.050000000000000266
327.528 0.07665999999999995
327.84 0.07665999999999995
328.152 0.040000000000000036
328.465 0.08000000000000007
328.777 0.07333000000000034
329.089 0.07665999999999995
329.399 0.046660000000000146
329.711 0.09665999999999997
330.024 0.07000000000000028
330.336 0.0900000000000003
330.648 0.06000000000000005
330.96 0.06666000000000016
331.272 0.08333000000000013
331.585 0.06333000000000011
331.897 0.06333000000000011
332.209 0.07665999999999995
332.519 0.046660000000000146
332.831 0.07000000000000028
333.143 0.08000000000000007
333.455 0.1066600000000002
333.767 0.06333000000000011
334.08 0.05333000000000032
334.392 0.06000000000000005
334.704 0.08666000000000018
335.014 0.07665999999999995
335.326 0.08333000000000013
335.638 0.08000000000000007
335.95 0.06666000000000016
336.262 0.07333000000000034
336.574 0.06666000000000016
336.886 0.0900000000000003
337.196 0.08000000000000007
337.508 0.08000000000000007
337.82 0.07000000000000028
338.132 0.09665999999999997
338.444 0.07333000000000034
338.755 0.09665999999999997
339.065 0.05333000000000032
339.377 0.06333000000000011
339.689 0.09332999999999991
340.001 0.07333000000000034
340.313 0.06333000000000011
340.625 0.08666000000000018
340.935 0.09332999999999991
341.246 0.07665999999999995
341.558 0.08333000000000013
341.87 0.08666000000000018
342.182 0.0900000000000003
342.492 0.08000000000000007
342.803 0.11332999999999993
343.115 0.10333000000000014
343.427 0.06333000000000011
343.739 0.09665999999999997
344.048 0.07333000000000034
344.36 0.07333000000000034
344.672 0.09332999999999991
344.984 0.07000000000000028
345.293 0.08666000000000018
345.605 0.07000000000000028
345.917 0.10333000000000014
346.228 0.08333000000000013
346.54 0.07333000000000034
346.85 0.10333000000000014
347.161 0.1066600000000002
347.473 0.08000000000000007
347.784 0.08666000000000018
348.094 0.09332999999999991
348.406 0.07665999999999995
348.717 0.07333000000000034
349.029 0.08333000000000013
349.338 0.06666000000000016
349.65 0.11332999999999993
349.961 0.0900000000000003
350.273 0.07000000000000028
350.582 0.0900000000000003
350.894 0.08333000000000013
351.205 0.08000000000000007
351.517 0.07333000000000034
351.826 0.09332999999999991
352.138 0.11332999999999993
352.449 0.0900000000000003
352.759 0.10333000000000014
353.07 0.05333000000000032
353.382 0.10333000000000014
353.693 0.07000000000000028
354.002 0.1200000000000001
354.314 0.09332999999999991
354.625 0.08000000000000007
354.934 0.07333000000000034
355.246 0.08666000000000018
355.557 0.11000000000000032
355.866 0.09332999999999991
356.178 0.09332999999999991
356.489 0.09665999999999997
356.798 0.08000000000000007
357.11 0.0900000000000003
357.421 0.07665999999999995
357.73 0.10000000000000009
358.041 0.08666000000000018
358.353 0.07000000000000028
358.662 0.0900000000000003
358.973 0.0900000000000003
359.284 0.09332999999999991
359.594 0.07665999999999995
359.905 0.0900000000000003
360.216 0.13666
360.525 0.12333000000000016
360.836 0.09332999999999991
361.147 0.10333000000000014
361.457 0.07333000000000034
361.768 0.07665999999999995
362.079 0.0900000000000003
362.388 0.08666000000000018
362.699 0.09665999999999997
363.01 0.08333000000000013
363.319 0.11665999999999999
363.63 0.09665999999999997
363.939 0.1200000000000001
364.25 0.10000000000000009
364.561 0.11000000000000032
364.87 0.1066600000000002
365.181 0.11000000000000032
365.492 0.11000000000000032
365.801 0.10000000000000009
366.112 0.10000000000000009
366.421 0.09665999999999997
366.732 0.08333000000000013
367.043 0.0900000000000003
367.352 0.11665999999999999
367.663 0.1066600000000002
367.972 0.0900000000000003
368.283 0.07333000000000034
368.592 0.08333000000000013
368.903 0.10333000000000014
369.214 0.06666000000000016
369.522 0.09332999999999991
369.833 0.07333000000000034
370.142 0.07000000000000028
370.453 0.1200000000000001
370.762 0.10000000000000009
371.073 0.10000000000000009
371.383 0.09332999999999991
371.692 0.09332999999999991
372.003 0.09332999999999991
372.312 0.09332999999999991
372.622 0.08666000000000018
372.931 0.08333000000000013
373.242 0.10333000000000014
373.551 0.09332999999999991
373.861 0.0900000000000003
374.172 0.1200000000000001
374.481 0.12333000000000016
374.791 0.07333000000000034
375.1 0.1066600000000002
375.411 0.09665999999999997
375.719 0.11000000000000032
376.03 0.10333000000000014
376.339 0.10000000000000009
376.649 0.11332999999999993
376.958 0.1066600000000002
377.269 0.1066600000000002
377.577 0.0900000000000003
377.888 0.10333000000000014
378.196 0.11000000000000032
378.507 0.11332999999999993
378.815 0.09665999999999997
379.126 0.1066600000000002
379.434 0.11000000000000032
379.745 0.10000000000000009
380.053 0.1066600000000002
380.364 0.11332999999999993
380.672 0.1066600000000002
380.983 0.10000000000000009
381.291 0.11000000000000032
381.602 0.11332999999999993
381.91 0.12333000000000016
382.221 0.0900000000000003
382.529 0.09665999999999997
382.837 0.1200000000000001
383.148 0.12666000000000022
383.456 0.1066600000000002
383.767 0.09665999999999997
384.075 0.13332999999999995
384.385 0.07333000000000034
384.694 0.11332999999999993
385.004 0.12666000000000022
385.312 0.11665999999999999
385.623 0.13000000000000034
385.931 0.12666000000000022
386.239 0.11000000000000032
386.549 0.10333000000000014
386.858 0.1499999999999999
387.168 0.13000000000000034
387.476 0.14000000000000012
387.787 0.12666000000000022
388.095 0.11000000000000032
388.403 0.1200000000000001
388.713 0.1499999999999999
389.021 0.14333000000000018
389.332 0.13332999999999995
389.64 0.11332999999999993
389.948 0.11332999999999993
390.258 0.14666000000000023
390.566 0.14000000000000012
390.876 0.13332999999999995
391.184 0.14000000000000012
391.492 0.15332999999999997
391.803 0.1633300000000002
392.111 0.1200000000000001
392.421 0.1633300000000002
392.729 0.12333000000000016
393.037 0.14000000000000012
393.347 0.16999999999999993
393.655 0.16666000000000025
393.963 0.12333000000000016
394.273 0.15666000000000002
394.581 0.1499999999999999
394.891 0.13000000000000034
395.199 0.18666000000000027
395.507 0.16666000000000025
395.817 0.14333000000000018
396.125 0.15332999999999997
396.433 0.16666000000000025
396.743 0.15332999999999997
397.051 0.14666000000000023
397.359 0.13666
397.669 0.18000000000000016
397.976 0.18333000000000022
398.284 0.15666000000000002
398.594 0.19666000000000006
398.902 0.16666000000000025
399.21 0.1633300000000002
399.52 0.1499999999999999
399.828 0.18333000000000022
400.135 0.15666000000000002
400.445 0.12333000000000016
400.753 0.1499999999999999
401.061 0.14333000000000018
401.368 0.14666000000000023
401.678 0.18000000000000016
401.986 0.14666000000000023
402.294 0.16999999999999993
402.603 0.18333000000000022
402.911 0.16000000000000014
403.219 0.17332999999999998
403.529 0.16000000000000014
403.836 0.14666000000000023
404.144 0.19333
404.452 0.1499999999999999
404.761 0.19666000000000006
405.069 0.15332999999999997
405.377 0.16666000000000025
405.686 0.13332999999999995
405.994 0.15666000000000002
406.301 0.15666000000000002
406.609 0.19666000000000006
406.919 0.1633300000000002
407.226 0.13332999999999995
407.534 0.2066600000000003
407.841 0.15332999999999997
408.151 0.14666000000000023
408.458 0.16666000000000025
408.766 0.13666
409.073 0.14666000000000023
409.383 0.18000000000000016
409.69 0.16000000000000014
409.998 0.15666000000000002
410.305 0.18000000000000016
410.613 0.18666000000000027
410.922 0.1499999999999999
411.23 0.1633300000000002
411.537 0.14333000000000018
411.845 0.15332999999999997
412.154 0.14333000000000018
412.461 0.14000000000000012
412.769 0.1633300000000002
413.076 0.17666000000000004
413.383 0.1633300000000002
413.693 0.18333000000000022
414.0 0.19666000000000006
414.307 0.1633300000000002
414.615 0.16000000000000014
414.922 0.14000000000000012
415.231 0.18333000000000022
415.539 0.12333000000000016
415.846 0.1499999999999999
416.153 0.17666000000000004
416.461 0.13332999999999995
416.768 0.13000000000000034
417.077 0.18000000000000016
417.384 0.20000000000000018
417.691 0.13666
417.999 0.17332999999999998
418.306 0.13666
418.613 0.16666000000000025
418.922 0.15332999999999997
419.229 0.18999999999999995
419.537 0.12666000000000022
419.844 0.16000000000000014
420.151 0.16000000000000014
420.458 0.1499999999999999
420.765 0.16999999999999993
421.074 0.14000000000000012
421.381 0.1633300000000002
421.688 0.13000000000000034
421.995 0.13666
422.302 0.13332999999999995
422.609 0.16666000000000025
422.917 0.13666
423.226 0.14666000000000023
423.533 0.13332999999999995
423.84 0.13000000000000034
424.147 0.1499999999999999
424.454 0.13332999999999995
424.761 0.14333000000000018
425.068 0.12666000000000022
425.374 0.14666000000000023
425.681 0.11665999999999999
425.988 0.13332999999999995
426.297 0.12666000000000022
426.604 0.1200000000000001
426.911 0.1066600000000002
427.218 0.14666000000000023
427.525 0.14666000000000023
427.832 0.14666000000000023
428.139 0.14000000000000012
428.445 0.13666
428.752 0.11332999999999993
429.059 0.1066600000000002
429.366 0.13666
429.673 0.12333000000000016
429.98 0.1499999999999999
430.288 0.13000000000000034
430.595 0.12333000000000016
430.902 0.13332999999999995
431.209 0.1200000000000001
431.515 0.12666000000000022
431.822 0.12666000000000022
432.129 0.15332999999999997
432.436 0.11332999999999993
432.742 0.11665999999999999
433.049 0.1066600000000002
433.356 0.13332999999999995
433.662 0.13000000000000034
433.969 0.15666000000000002
434.276 0.14333000000000018
434.582 0.13332999999999995
434.889 0.13000000000000034
435.196 0.11000000000000032
435.502 0.11332999999999993
435.809 0.14333000000000018
436.115 0.11665999999999999
436.422 0.1066600000000002
436.729 0.10000000000000009
437.035 0.13666
437.342 0.13666
437.648 0.11000000000000032
437.955 0.14666000000000023
438.261 0.13000000000000034
438.568 0.14000000000000012
438.874 0.12333000000000016
439.181 0.13666
439.487 0.13332999999999995
439.794 0.14000000000000012
440.1 0.12333000000000016
440.407 0.1200000000000001
440.713 0.12333000000000016
441.019 0.11000000000000032
441.326 0.12666000000000022
441.632 0.11000000000000032
441.939 0.1499999999999999
442.245 0.11000000000000032
442.551 0.11000000000000032
442.858 0.11000000000000032
443.164 0.14333000000000018
443.471 0.11000000000000032
443.775 0.10000000000000009
444.081 0.1200000000000001
444.387 0.11000000000000032
444.694 0.08666000000000018
445.0 0.11000000000000032
445.306 0.1200000000000001
445.613 0.08333000000000013
445.919 0.11665999999999999
446.225 0.0900000000000003
446.531 0.09665999999999997
446.838 0.10333000000000014
447.144 0.10333000000000014
447.45 0.1066600000000002
447.754 0.07665999999999995
448.06 0.11665999999999999
448.367 0.08666000000000018
448.673 0.10000000000000009
448.979 0.10333000000000014
449.285 0.10333000000000014
449.591 0.08333000000000013
449.897 0.1066600000000002
450.203 0.13332999999999995
450.51 0.1066600000000002
450.814 0.13000000000000034
451.12 0.11000000000000032
451.426 0.1200000000000001
451.732 0.10000000000000009
452.038 0.09332999999999991
452.344 0.09332999999999991
452.65 0.0900000000000003
452.954 0.09665999999999997
453.26 0.1066600000000002
453.566 0.11665999999999999
453.872 0.12333000000000016
454.178 0.11665999999999999
454.484 0.11332999999999993
454.79 0.11000000000000032
455.094 0.12333000000000016
455.4 0.13000000000000034
455.706 0.08666000000000018
456.012 0.13332999999999995
456.318 0.11000000000000032
456.623 0.09665999999999997
456.927 0.09665999999999997
457.233 0.11665999999999999
457.539 0.11665999999999999
457.845 0.14333000000000018
458.151 0.10333000000000014
458.457 0.10000000000000009
458.76 0.11000000000000032
459.066 0.13666
459.372 0.10333000000000014
459.678 0.13000000000000034
459.984 0.1066600000000002
460.287 0.13666
460.593 0.13000000000000034
460.899 0.12666000000000022
461.205 0.14333000000000018
461.51 0.11000000000000032
461.814 0.09665999999999997
462.12 0.09665999999999997
462.426 0.14000000000000012
462.731 0.13332999999999995
463.035 0.13332999999999995
463.341 0.13332999999999995
463.646 0.14000000000000012
463.952 0.14333000000000018
464.258 0.1066600000000002
464.561 0.13332999999999995
464.867 0.1200000000000001
465.172 0.13666
465.478 0.12666000000000022
465.782 0.13332999999999995
466.087 0.12333000000000016
466.393 0.13332999999999995
466.698 0.11332999999999993
467.002 0.13000000000000034
467.307 0.16666000000000025
467.613 0.1200000000000001
467.916 0.1499999999999999
468.222 0.11665999999999999
468.527 0.13000000000000034
468.833 0.1499999999999999
469.136 0.12333000000000016
469.442 0.13332999999999995
469.747 0.11665999999999999
470.053 0.13332999999999995
470.356 0.13332999999999995
470.662 0.16999999999999993
470.967 0.13000000000000034
471.27 0.16999999999999993
471.576 0.16666000000000025
471.881 0.14666000000000023
472.185 0.18999999999999995
472.49 0.2266600000000003
472.795 0.2833300000000003
473.101 0.32665999999999995
473.404 0.3333300000000001
473.709 0.40000000000000036
474.015 0.3433299999999999
474.318 0.37333000000000016
474.623 0.35665999999999976
474.929 0.39332999999999974
475.232 0.3600000000000003
475.537 0.3433299999999999
475.842 0.3533299999999997
476.146 0.31000000000000005
476.451 0.27666000000000013
476.756 0.18666000000000027
477.059 0.12666000000000022
477.364 0.15666000000000002
477.668 0.15666000000000002
477.973 0.14666000000000023
478.278 0.14333000000000018
478.581 0.13332999999999995
478.886 0.1066600000000002
479.191 0.10000000000000009
479.494 0.1200000000000001
479.8 0.11665999999999999
480.105 0.1066600000000002
480.408 0.1066600000000002
480.713 0.13000000000000034
481.016 0.11665999999999999
481.321 0.1066600000000002
481.626 0.13000000000000034
481.929 0.11000000000000032
482.234 0.15332999999999997
482.537 0.11332999999999993
482.842 0.1200000000000001
483.147 0.09665999999999997
483.45 0.11665999999999999
483.755 0.08666000000000018
484.058 0.10000000000000009
484.363 0.11332999999999993
484.668 0.1066600000000002
484.971 0.13666
485.276 0.11665999999999999
485.579 0.08333000000000013
485.884 0.09332999999999991
486.187 0.08000000000000007
486.492 0.10000000000000009
486.796 0.13000000000000034
487.099 0.11332999999999993
487.404 0.09665999999999997
487.707 0.10333000000000014
488.012 0.10333000000000014
488.315 0.1066600000000002
488.62 0.10000000000000009
488.924 0.07333000000000034
489.227 0.12666000000000022
489.532 0.09665999999999997
489.835 0.0900000000000003
490.139 0.07665999999999995
490.442 0.10000000000000009
490.747 0.11332999999999993
491.05 0.11000000000000032
491.354 0.09332999999999991
491.657 0.10000000000000009
491.962 0.0900000000000003
492.265 0.10000000000000009
492.569 0.11665999999999999
492.872 0.11665999999999999
493.177 0.09665999999999997
493.479 0.10333000000000014
493.784 0.10000000000000009
494.087 0.08666000000000018
494.391 0.1066600000000002
494.694 0.09665999999999997
494.998 0.0900000000000003
495.301 0.08333000000000013
495.606 0.0900000000000003
495.908 0.1200000000000001
496.213 0.10333000000000014
496.515 0.11665999999999999
496.82 0.08000000000000007
497.122 0.10000000000000009
497.427 0.10333000000000014
497.729 0.08000000000000007
498.034 0.13332999999999995
498.336 0.09332999999999991
498.641 0.08666000000000018
498.943 0.1066600000000002
499.248 0.1066600000000002
499.55 0.1066600000000002
499.853 0.10333000000000014
500.157 0.0900000000000003
500.46 0.13000000000000034
500.764 0.11665999999999999
501.066 0.11665999999999999
501.371 0.1066600000000002
501.673 0.11332999999999993
501.975 0.12666000000000022
502.28 0.1066600000000002
502.582 0.10333000000000014
502.887 0.1066600000000002
503.189 0.14000000000000012
503.493 0.12333000000000016
503.796 0.13666
504.098 0.11000000000000032
504.402 0.1200000000000001
504.704 0.11000000000000032
505.009 0.10000000000000009
505.311 0.09332999999999991
505.613 0.09665999999999997
505.917 0.11000000000000032
506.22 0.0900000000000003
506.524 0.13666
506.826 0.1499999999999999
507.128 0.12666000000000022
507.432 0.13666
507.735 0.13000000000000034
508.039 0.1200000000000001
508.341 0.12333000000000016
508.643 0.12333000000000016
508.947 0.08333000000000013
509.249 0.13332999999999995
509.552 0.13666
509.856 0.09665999999999997
510.158 0.11332999999999993
510.46 0.12333000000000016
510.764 0.12333000000000016
511.066 0.1200000000000001
511.37 0.14333000000000018
511.672 0.09332999999999991
511.974 0.11665999999999999
512.278 0.13332999999999995
512.58 0.12333000000000016
512.882 0.13000000000000034
513.186 0.12666000000000022
513.488 0.12666000000000022
513.79 0.12666000000000022
514.094 0.14333000000000018
514.396 0.10333000000000014
514.698 0.1066600000000002
515.0 0.14000000000000012
515.304 0.1200000000000001
515.606 0.11665999999999999
515.908 0.11665999999999999
516.212 0.13332999999999995
516.513 0.11665999999999999
516.815 0.13666
517.119 0.16000000000000014
517.421 0.14000000000000012
517.723 0.1499999999999999
518.025 0.15666000000000002
518.329 0.14000000000000012
518.63 0.14333000000000018
518.932 0.14666000000000023
519.236 0.10333000000000014
519.538 0.12333000000000016
519.839 0.16666000000000025
520.141 0.12666000000000022
520.445 0.14333000000000018
520.747 0.19333
521.048 0.13332999999999995
521.35 0.13332999999999995
521.654 0.11332999999999993
521.956 0.16999999999999993
522.257 0.15666000000000002
522.559 0.13000000000000034
522.863 0.12666000000000022
523.164 0.15666000000000002
523.466 0.14333000000000018
523.768 0.1200000000000001
524.071 0.11000000000000032
524.373 0.10000000000000009
524.674 0.13332999999999995
524.976 0.1633300000000002
525.28 0.13000000000000034
525.581 0.14000000000000012
525.883 0.13332999999999995
526.184 0.15332999999999997
526.486 0.13666
526.789 0.12333000000000016
527.091 0.13332999999999995
527.393 0.13666
527.694 0.13000000000000034
527.996 0.14000000000000012
528.299 0.13332999999999995
528.601 0.13000000000000034
528.902 0.11000000000000032
529.203 0.12666000000000022
529.505 0.12333000000000016
529.808 0.1200000000000001
530.11 0.1066600000000002
530.411 0.1633300000000002
530.713 0.12666000000000022
531.014 0.12333000000000016
531.315 0.12666000000000022
531.619 0.1200000000000001
531.92 0.15332999999999997
532.222 0.13332999999999995
532.523 0.13000000000000034
532.824 0.17332999999999998
533.126 0.11665999999999999
533.429 0.14000000000000012
533.73 0.13000000000000034
534.031 0.09665999999999997
534.333 0.12666000000000022
534.634 0.09332999999999991
534.935 0.1066600000000002
535.237 0.11665999999999999
535.54 0.11332999999999993
535.841 0.12333000000000016
536.142 0.1633300000000002
536.444 0.13332999999999995
536.745 0.09665999999999997
537.046 0.14000000000000012
537.347 0.13332999999999995
537.648 0.11332999999999993
537.951 0.12333000000000016
538.253 0.11665999999999999
538.554 0.10333000000000014
538.855 0.12333000000000016
539.156 0.1066600000000002
539.457 0.10333000000000014
539.758 0.13332999999999995
540.059 0.13666
540.36 0.12333000000000016
540.661 0.11000000000000032
540.963 0.1066600000000002
541.266 0.12333000000000016
541.567 0.11332999999999993
541.868 0.08000000000000007
542.169 0.1066600000000002
542.47 0.10000000000000009
542.771 0.09665999999999997
543.072 0.0900000000000003
543.373 0.0900000000000003
543.674 0.08666000000000018
543.975 0.1066600000000002
544.276 0.08333000000000013
544.577 0.1200000000000001
544.878 0.09665999999999997
545.178 0.1066600000000002
545.479 0.0900000000000003
545.78 0.08666000000000018
546.081 0.1066600000000002
546.382 0.06333000000000011
546.685 0.10333000000000014
546.986 0.0900000000000003
547.287 0.07000000000000028
547.588 0.10333000000000014
547.888 0.1066600000000002
548.189 0.10333000000000014
548.49 0.06666000000000016
548.791 0.08333000000000013
549.092 0.07333000000000034
549.392 0.06000000000000005
549.693 0.08333000000000013
549.994 0.06666000000000016
550.295 0.10333000000000014
550.596 0.10000000000000009
550.896 0.0900000000000003
551.197 0.08333000000000013
551.498 0.09665999999999997
551.798 0.08666000000000018
552.099 0.06666000000000016
552.4 0.08333000000000013
552.701 0.05665999999999993
553.001 0.08333000000000013
553.302 0.07000000000000028
553.6 0.0900000000000003
553.901 0.08666000000000018
554.202 0.08333000000000013
554.502 0.06666000000000016
554.803 0.08333000000000013
555.104 0.06000000000000005
555.404 0.08666000000000018
555.705 0.07000000000000028
556.005 0.08666000000000018
556.306 0.06333000000000011
556.606 0.11332999999999993
556.907 0.06000000000000005
557.207 0.08000000000000007
557.508 0.06333000000000011
557.808 0.06333000000000011
558.109 0.06333000000000011
558.409 0.05665999999999993
558.71 0.06333000000000011
559.008 0.0900000000000003
559.309 0.0900000000000003
559.609 0.06000000000000005
559.91 0.06666000000000016
560.21 0.05665999999999993
560.511 0.05665999999999993
560.811 0.07000000000000028
561.111 0.046660000000000146
561.412 0.05665999999999993
561.712 0.033330000000000304
562.01 0.07665999999999995
562.311 0.07665999999999995
562.611 0.06666000000000016
562.912 0.08333000000000013
563.212 0.06666000000000016
563.512 0.08666000000000018
563.813 0.06000000000000005
564.113 0.08333000000000013
564.413 0.06666000000000016
564.711 0.07665999999999995
565.012 0.07333000000000034
565.312 0.10333000000000014
565.612 0.06666000000000016
565.912 0.06666000000000016
566.213 0.07333000000000034
566.513 0.04333000000000009
566.811 0.08000000000000007
567.111 0.06000000000000005
567.411 0.07333000000000034
567.712 0.07333000000000034
568.012 0.050000000000000266
568.312 0.07000000000000028
568.61 0.06333000000000011
568.91 0.06666000000000016
569.21 0.08333000000000013
569.51 0.07665999999999995
569.811 0.06666000000000016
570.111 0.04333000000000009
570.409 0.07000000000000028
570.709 0.07333000000000034
571.009 0.07665999999999995
571.309 0.050000000000000266
571.609 0.07665999999999995
571.907 0.07000000000000028
572.207 0.050000000000000266
572.507 0.040000000000000036
572.807 0.1066600000000002
573.107 0.046660000000000146
573.405 0.07665999999999995
573.705 0.06333000000000011
574.005 0.07333000000000034
574.305 0.040000000000000036
574.603 0.07000000000000028
574.903 0.06333000000000011
575.203 0.07000000000000028
575.503 0.07333000000000034
575.803 0.07000000000000028
576.101 0.08000000000000007
576.401 0.07000000000000028
576.7 0.07665999999999995
577.0 0.09332999999999991
577.298 0.08000000000000007
577.598 0.06666000000000016
577.898 0.06666000000000016
578.198 0.06666000000000016
578.495 0.08333000000000013
578.795 0.07000000000000028
579.095 0.050000000000000266
579.395 0.08333000000000013
579.693 0.06666000000000016
579.992 0.05665999999999993
580.292 0.06333000000000011
580.59 0.06333000000000011
580.89 0.07665999999999995
581.189 0.08000000000000007
581.489 0.040000000000000036
581.787 0.06666000000000016
582.087 0.08000000000000007
582.386 0.05665999999999993
582.684 0.08000000000000007
582.984 0.06000000000000005
583.283 0.05333000000000032
583.581 0.10000000000000009
583.881 0.08000000000000007
584.18 0.08333000000000013
584.48 0.07333000000000034
584.777 0.07333000000000034
585.077 0.07333000000000034
585.377 0.07333000000000034
585.674 0.06666000000000016
585.974 0.08000000000000007
586.273 0.0900000000000003
586.571 0.07333000000000034
586.871 0.10000000000000009
587.17 0.06666000000000016
587.468 0.08333000000000013
587.767 0.06666000000000016
588.067 0.07333000000000034
588.364 0.08000000000000007
588.664 0.06000000000000005
588.963 0.05333000000000032
589.261 0.07333000000000034
589.56 0.06333000000000011
589.857 0.11000000000000032
590.157 0.09332999999999991
590.456 0.0900000000000003
590.754 0.05665999999999993
591.053 0.07665999999999995
591.353 0.07665999999999995
591.65 0.08666000000000018
591.949 0.09332999999999991
592.247 0.040000000000000036
592.546 0.06000000000000005
592.845 0.08000000000000007
593.143 0.08333000000000013
593.442 0.0900000000000003
593.739 0.07000000000000028
594.039 0.05333000000000032
594.338 0.11665999999999999
594.635 0.10333000000000014
594.935 0.08333000000000013
595.232 0.07000000000000028
595.531 0.0900000000000003
595.83 0.09332999999999991
596.128 0.08000000000000007
596.427 0.07665999999999995
596.724 0.08000000000000007
597.023 0.07000000000000028
597.32 0.05333000000000032
597.62 0.07665999999999995
597.919 0.07665999999999995
598.216 0.10000000000000009
598.515 0.08666000000000018
598.812 0.09332999999999991
599.111 0.0900000000000003
599.409 0.07333000000000034
599.708 0.09332999999999991
600.005 0.06333000000000011
600.304 0.10333000000000014
600.603 0.06666000000000016
600.9 0.10333000000000014
601.199 0.09665999999999997
601.496 0.10000000000000009
601.795 0.08666000000000018
602.092 0.07665999999999995
602.391 0.06666000000000016
602.688 0.08000000000000007
602.987 0.0900000000000003
603.284 0.08666000000000018
603.583 0.09332999999999991
603.88 0.08000000000000007
604.179 0.07000000000000028
604.476 0.08000000000000007
604.775 0.06333000000000011
605.072 0.11665999999999999
605.371 0.10000000000000009
605.668 0.0900000000000003
605.967 0.046660000000000146
606.264 0.0900000000000003
606.563 0.07665999999999995
606.86 0.09665999999999997
607.159 0.07000000000000028
607.455 0.08333000000000013
607.754 0.0900000000000003
608.051 0.07333000000000034
608.35 0.08000000000000007
608.647 0.07333000000000034
608.944 0.09665999999999997
609.242 0.050000000000000266
609.539 0.09332999999999991
609.838 0.09332999999999991
610.135 0.06666000000000016
610.434 0.05665999999999993
610.73 0.07333000000000034
611.029 0.0900000000000003
611.326 0.08000000000000007
611.622 0.07665999999999995
611.921 0.07333000000000034
612.218 0.07000000000000028
612.517 0.08000000000000007
612.813 0.046660000000000146
613.112 0.06000000000000005
613.409 0.06333000000000011
613.705 0.09332999999999991
614.004 0.040000000000000036
614.301 0.10000000000000009
614.599 0.07665999999999995
614.896 0.07333000000000034
615.192 0.07000000000000028
615.491 0.050000000000000266
615.788 0.07000000000000028
616.086 0.06000000000000005
616.383 0.05665999999999993
616.679 0.05333000000000032
616.978 0.04333000000000009
617.274 0.07000000000000028
617.573 0.09665999999999997
617.87 0.06333000000000011
618.166 0.09332999999999991
618.465 0.07333000000000034
618.761 0.05665999999999993
619.057 0.06333000000000011
619.356 0.08000000000000007
619.652 0.06333000000000011
619.951 0.07333000000000034
620.247 0.07665999999999995
620.544 0.07333000000000034
620.842 0.06000000000000005
621.139 0.07333000000000034
621.435 0.04333000000000009
621.733 0.05333000000000032
622.03 0.05665999999999993
622.326 0.07000000000000028
622.625 0.07000000000000028
622.921 0.07000000000000028
623.217 0.07665999999999995
623.516 0.06666000000000016
623.812 0.06000000000000005
624.108 0.09332999999999991
624.407 0.06000000000000005
624.703 0.07000000000000028
624.999 0.06000000000000005
625.295 0.050000000000000266
625.594 0.07000000000000028
625.89 0.040000000000000036
626.186 0.04333000000000009
626.484 0.05333000000000032
626.781 0.06333000000000011
627.077 0.07333000000000034
627.375 0.08000000000000007
627.671 0.046660000000000146
627.968 0.05665999999999993
628.264 0.08333000000000013
628.562 0.036659999999999915
628.858 0.06666000000000016
629.154 0.05333000000000032
629.452 0.05333000000000032
629.748 0.050000000000000266
630.045 0.06000000000000005
630.341 0.06333000000000011
630.639 0.05665999999999993
630.935 0.05665999999999993
631.231 0.05665999999999993
631.527 0.07000000000000028
631.825 0.07333000000000034
632.121 0.07333000000000034
632.417 0.06000000000000005
632.713 0.07665999999999995
633.011 0.06333000000000011
633.307 0.05333000000000032
633.603 0.07333000000000034
633.899 0.08333000000000013
634.195 0.08000000000000007
634.493 0.06666000000000016
634.789 0.07000000000000028
635.085 0.06000000000000005
635.381 0.06000000000000005
635.679 0.08000000000000007
635.975 0.06666000000000016
636.271 0.08000000000000007
636.567 0.07665999999999995
636.863 0.05665999999999993
637.161 0.06333000000000011
637.457 0.07000000000000028
637.752 0.06666000000000016
638.048 0.07000000000000028
638.344 0.06333000000000011
638.64 0.07000000000000028
638.938 0.05665999999999993
639.234 0.06333000000000011
639.529 0.07000000000000028
639.825 0.08333000000000013
640.121 0.07333000000000034
640.419 0.06333000000000011
640.715 0.06000000000000005
641.01 0.08666000000000018
641.306 0.0900000000000003
641.602 0.09332999999999991
641.898 0.08000000000000007
642.193 0.07333000000000034
642.491 0.07000000000000028
642.787 0.08000000000000007
643.082 0.0900000000000003
643.378 0.06333000000000011
643.674 0.07333000000000034
643.969 0.07333000000000034
644.265 0.07665999999999995
644.563 0.10000000000000009
644.858 0.10000000000000009
645.154 0.10000000000000009
645.45 0.08333000000000013
645.745 0.07333000000000034
646.041 0.09332999999999991
646.336 0.05333000000000032
646.632 0.07000000000000028
646.928 0.08333000000000013
647.225 0.07333000000000034
647.521 0.09665999999999997
647.816 0.06000000000000005
648.112 0.1066600000000002
648.407 0.0900000000000003
648.703 0.10333000000000014
648.998 0.08333000000000013
649.294 0.07665999999999995
649.589 0.08666000000000018
649.885 0.08666000000000018
650.18 0.07333000000000034
650.478 0.07333000000000034
650.773 0.07000000000000028
651.069 0.09665999999999997
651.364 0.08666000000000018
651.659 0.08333000000000013
651.955 0.08000000000000007
652.25 0.05333000000000032
652.546 0.08333000000000013
652.841 0.0900000000000003
653.136 0.06333000000000011
653.432 0.06666000000000016
653.727 0.050000000000000266
654.022 0.046660000000000146
654.318 0.07000000000000028
654.613 0.040000000000000036
654.908 0.07000000000000028
655.204 0.07665999999999995
655.499 0.07000000000000028
655.794 0.05333000000000032
656.09 0.06000000000000005
656.385 0.08000000000000007
656.68 0.07665999999999995
656.975 0.06333000000000011
657.271 0.05333000000000032
657.566 0.05333000000000032
657.861 0.05665999999999993
658.156 0.07000000000000028
658.451 0.04333000000000009
658.747 0.05665999999999993
659.042 0.06666000000000016
659.337 0.06333000000000011
659.632 0.05665999999999993
659.927 0.07333000000000034
660.222 0.06000000000000005
660.518 0.05665999999999993
660.813 0.050000000000000266
661.108 0.06333000000000011
661.403 0.07000000000000028
661.698 0.05333000000000032
661.993 0.07665999999999995
662.288 0.06666000000000016
662.583 0.04333000000000009
662.878 0.07665999999999995
663.173 0.05333000000000032
663.468 0.06666000000000016
663.763 0.06000000000000005
664.058 0.07665999999999995
664.353 0.040000000000000036
664.648 0.06333000000000011
664.943 0.03000000000000025
665.238 0.046660000000000146
665.531 0.040000000000000036
665.826 0.07000000000000028
666.121 0.05333000000000032
666.416 0.04333000000000009
666.711 0.05333000000000032
667.006 0.06000000000000005
667.301 0.05333000000000032
667.596 0.036659999999999915
667.891 0.036659999999999915
668.185 0.06333000000000011
668.48 0.06666000000000016
668.773 0.06333000000000011
669.068 0.046660000000000146
669.363 0.050000000000000266
669.658 0.06000000000000005
669.953 0.036659999999999915
670.247 0.050000000000000266
670.542 0.040000000000000036
670.837 0.05665999999999993
671.132 0.046660000000000146
671.424 0.07000000000000028
671.719 0.033330000000000304
672.014 0.05333000000000032
672.309 0.050000000000000266
672.603 0.040000000000000036
672.898 0.05333000000000032
673.193 0.050000000000000266
673.486 0.08000000000000007
673.78 0.06000000000000005
674.075 0.050000000000000266
674.37 0.08666000000000018
674.664 0.07000000000000028
674.959 0.046660000000000146
675.254 0.07000000000000028
675.546 0.036659999999999915
675.841 0.036659999999999915
676.135 0.033330000000000304
676.43 0.06000000000000005
676.725 0.036659999999999915
677.019 0.05333000000000032
677.312 0.04333000000000009
677.606 0.033330000000000304
677.901 0.033330000000000304
678.196 0.05333000000000032
678.49 0.036659999999999915
678.783 0.046660000000000146
679.077 0.046660000000000146
679.372 0.046660000000000146
679.666 0.05333000000000032
679.961 0.05333000000000032
680.253 0.036659999999999915
680.548 0.05333000000000032
680.842 0.046660000000000146
681.137 0.050000000000000266
681.429 0.040000000000000036
681.723 0.05665999999999993
682.018 0.06000000000000005
682.312 0.05333000000000032
682.607 0.026660000000000128
682.899 0.06333000000000011
683.194 0.06333000000000011
683.488 0.036659999999999915
683.782 0.05665999999999993
684.075 0.05333000000000032
684.369 0.050000000000000266
684.663 0.033330000000000304
684.958 0.06000000000000005
685.25 0.04333000000000009
685.544 0.03000000000000025
685.839 0.036659999999999915
686.133 0.04333000000000009
686.425 0.07000000000000028
686.719 0.046660000000000146
687.014 0.06333000000000011
687.306 0.04333000000000009
687.6 0.036659999999999915
687.894 0.05665999999999993
688.189 0.003330000000000055
688.481 0.06000000000000005
688.775 0.06666000000000016
689.069 0.01666000000000034
689.362 0.046660000000000146
689.656 0.05665999999999993
689.95 0.033330000000000304
690.242 0.06666000000000016
690.536 0.05665999999999993
690.83 0.05665999999999993
691.124 0.05665999999999993
691.417 0.040000000000000036
691.711 0.046660000000000146
692.005 0.050000000000000266
692.297 0.046660000000000146
692.591 0.05665999999999993
692.885 0.036659999999999915
693.177 0.046660000000000146
693.471 0.046660000000000146
693.765 0.07000000000000028
694.057 0.06000000000000005
694.351 0.040000000000000036
694.645 0.06000000000000005
694.937 0.05665999999999993
695.231 0.05665999999999993
695.523 0.046660000000000146
695.817 0.05333000000000032
696.111 0.023330000000000073
696.403 0.04333000000000009
696.697 0.03000000000000025
696.991 0.033330000000000304
697.283 0.06333000000000011
697.577 0.06000000000000005
697.871 0.026660000000000128
698.163 0.046660000000000146
698.457 0.05333000000000032
698.749 0.04333000000000009
699.042 0.05665999999999993
699.336 0.050000000000000266
699.628 0.040000000000000036
699.922 0.06000000000000005
700.214 0.04333000000000009
700.508 0.036659999999999915
700.801 0.06333000000000011
701.093 0.023330000000000073
701.387 0.06000000000000005
701.679 0.046660000000000146
701.973 0.06333000000000011
702.264 0.046660000000000146
702.558 0.046660000000000146
702.852 0.046660000000000146
703.144 0.050000000000000266
703.437 0.050000000000000266
703.729 0.033330000000000304
704.023 0.04333000000000009
704.315 0.04333000000000009
704.608 0.026660000000000128
704.902 0.06000000000000005
705.194 0.04333000000000009
705.487 0.036659999999999915
705.779 0.046660000000000146
706.073 0.03000000000000025
706.364 0.033330000000000304
706.658 0.050000000000000266
706.949 0.036659999999999915
707.243 0.026660000000000128
707.535 0.033330000000000304
707.828 0.03000000000000025
708.12 0.040000000000000036
708.413 0.05333000000000032
708.705 0.04333000000000009
708.999 0.050000000000000266
709.29 0.04333000000000009
709.584 0.050000000000000266
709.875 0.05333000000000032
710.169 0.036659999999999915
710.46 0.046660000000000146
710.754 0.033330000000000304
711.045 0.04333000000000009
711.339 0.040000000000000036
711.63 0.04333000000000009
711.924 0.036659999999999915
712.215 0.05665999999999993
712.508 0.04333000000000009
712.8 0.033330000000000304
713.093 0.050000000000000266
713.385 0.05333000000000032
713.678 0.013330000000000286
713.969 0.03000000000000025
714.263 0.04333000000000009
714.554 0.01666000000000034
714.848 0.023330000000000073
715.139 0.026660000000000128
715.432 0.046660000000000146
715.724 0.010000000000000231
716.015 0.023330000000000073
716.308 0.003330000000000055
716.6 0.020000000000000018
716.893 0.003330000000000055
