# Created: 2019-11-28 14:59:41.805636
# rshift intensity
44.8672 0.23666999999999971
45.1934 0.22999999999999998
45.5197 0.23333000000000004
45.8459 0.26332999999999984
46.172 0.2033299999999998
46.4982 0.22999999999999998
46.8244 0.2166699999999997
47.1506 0.2599999999999998
47.4767 0.24332999999999982
47.8028 0.25666999999999973
48.1268 0.23999999999999977
48.4529 0.22999999999999998
48.779 0.26332999999999984
49.1051 0.2233299999999998
49.4312 0.25333000000000006
49.7573 0.23333000000000004
50.0833 0.2233299999999998
50.4094 0.24332999999999982
50.7354 0.23333000000000004
51.0614 0.19999999999999973
51.3874 0.22999999999999998
51.7134 0.2233299999999998
52.0394 0.21999999999999975
52.3654 0.19999999999999973
52.6892 0.24332999999999982
53.0151 0.25333000000000006
53.3411 0.22666999999999993
53.667 0.23666999999999971
53.9929 0.2733300000000001
54.3188 0.21333000000000002
54.6447 0.22999999999999998
54.9706 0.25333000000000006
55.2965 0.23999999999999977
55.6202 0.23666999999999971
55.9461 0.21999999999999975
56.2719 0.20999999999999996
56.5977 0.22999999999999998
56.9235 0.23333000000000004
57.2494 0.25
57.5751 0.21333000000000002
57.9009 0.23333000000000004
58.2246 0.24666999999999994
58.5503 0.21333000000000002
58.8761 0.2166699999999997
59.2018 0.2066699999999999
59.5275 0.2233299999999998
59.8532 0.2233299999999998
60.179 0.23666999999999971
60.5025 0.23999999999999977
60.8282 0.23666999999999971
61.1539 0.24666999999999994
61.4795 0.23999999999999977
61.8052 0.23666999999999971
62.1308 0.22666999999999993
62.4564 0.22999999999999998
62.7799 0.24332999999999982
63.1055 0.2066699999999999
63.4311 0.23333000000000004
63.7567 0.24332999999999982
64.0822 0.24666999999999994
64.4078 0.22666999999999993
64.7312 0.20999999999999996
65.0567 0.24332999999999982
65.3822 0.28332999999999986
65.7078 0.24332999999999982
66.0333 0.18332999999999977
66.3566 0.26332999999999984
66.6821 0.23999999999999977
67.0076 0.21999999999999975
67.333 0.23333000000000004
67.6584 0.21999999999999975
67.9817 0.22999999999999998
68.3072 0.2066699999999999
68.6326 0.25333000000000006
68.958 0.25333000000000006
69.2834 0.2233299999999998
69.6066 0.24332999999999982
69.932 0.25
70.2573 0.24332999999999982
70.5827 0.26332999999999984
70.9058 0.25
71.2312 0.2933300000000001
71.5565 0.2733300000000001
71.8818 0.27
72.2049 0.2733300000000001
72.5302 0.25666999999999973
72.8555 0.2799999999999998
73.1807 0.23999999999999977
73.5059 0.2799999999999998
73.829 0.2733300000000001
74.1543 0.26666999999999996
74.4795 0.2599999999999998
74.8025 0.25
75.1277 0.22999999999999998
75.4529 0.22999999999999998
75.778 0.25333000000000006
76.101 0.2066699999999999
76.4262 0.1866699999999999
76.7513 0.23333000000000004
77.0764 0.2233299999999998
77.3994 0.20999999999999996
77.7245 0.23333000000000004
78.0496 0.21333000000000002
78.3746 0.20999999999999996
78.6976 0.24332999999999982
79.0226 0.1599999999999997
79.3476 0.2066699999999999
79.6705 0.18999999999999995
79.9956 0.18999999999999995
80.3206 0.21333000000000002
80.6434 0.21333000000000002
80.9684 0.21333000000000002
81.2934 0.18999999999999995
81.6183 0.22666999999999993
81.9411 0.23333000000000004
82.2661 0.22666999999999993
82.591 0.2166699999999997
82.9138 0.1599999999999997
83.2387 0.2066699999999999
83.5636 0.2033299999999998
83.8863 0.2066699999999999
84.2112 0.17666999999999966
84.536 0.21999999999999975
84.8587 0.2166699999999997
85.1836 0.2233299999999998
85.5084 0.2033299999999998
85.8311 0.2066699999999999
86.1559 0.19999999999999973
86.4807 0.23333000000000004
86.8033 0.21999999999999975
87.1281 0.21333000000000002
87.4528 0.21999999999999975
87.7754 0.19999999999999973
88.1002 0.21999999999999975
88.4249 0.19999999999999973
88.7475 0.22666999999999993
89.0722 0.2066699999999999
89.3947 0.2166699999999997
89.7194 0.19999999999999973
90.0441 0.21999999999999975
90.3666 0.23333000000000004
90.6912 0.21333000000000002
91.0159 0.21999999999999975
91.3383 0.19666999999999968
91.663 0.23999999999999977
91.9854 0.22666999999999993
92.31 0.2033299999999998
92.6346 0.21333000000000002
92.957 0.21333000000000002
93.2816 0.2166699999999997
93.604 0.2033299999999998
93.9285 0.19999999999999973
94.253 0.2066699999999999
94.5754 0.23333000000000004
94.8999 0.20999999999999996
95.2223 0.2066699999999999
95.5467 0.19666999999999968
95.8712 0.17332999999999998
96.1935 0.2033299999999998
96.518 0.21999999999999975
96.8402 0.2066699999999999
97.1647 0.18999999999999995
97.4869 0.19666999999999968
97.8113 0.24332999999999982
98.1357 0.19666999999999968
98.458 0.19666999999999968
98.7823 0.14666999999999986
99.1045 0.19333
99.4289 0.2033299999999998
99.7511 0.2066699999999999
100.075 0.16666999999999987
100.398 0.22666999999999993
100.722 0.16999999999999993
101.046 0.19999999999999973
101.368 0.2233299999999998
101.693 0.19333
102.015 0.2166699999999997
102.339 0.21333000000000002
102.661 0.21333000000000002
102.985 0.1866699999999999
103.307 0.22666999999999993
103.631 0.19999999999999973
103.954 0.23333000000000004
104.278 0.22999999999999998
104.6 0.22999999999999998
104.924 0.21333000000000002
105.246 0.20999999999999996
105.57 0.23333000000000004
105.892 0.22666999999999993
106.216 0.2033299999999998
106.538 0.19666999999999968
106.862 0.18999999999999995
107.184 0.19333
107.508 0.2033299999999998
107.83 0.22999999999999998
108.154 0.1866699999999999
108.476 0.18332999999999977
108.8 0.21333000000000002
109.122 0.23333000000000004
109.446 0.23666999999999971
109.768 0.16332999999999975
110.092 0.23999999999999977
110.414 0.2066699999999999
110.737 0.2166699999999997
111.059 0.2066699999999999
111.383 0.18999999999999995
111.705 0.1866699999999999
112.029 0.20999999999999996
112.351 0.19333
112.675 0.23333000000000004
112.996 0.2233299999999998
113.318 0.2233299999999998
113.642 0.21333000000000002
113.964 0.22666999999999993
114.287 0.19999999999999973
114.609 0.18999999999999995
114.933 0.19666999999999968
115.255 0.19333
115.578 0.21999999999999975
115.9 0.16332999999999975
116.222 0.20999999999999996
116.545 0.17666999999999966
116.867 0.19999999999999973
117.191 0.19666999999999968
117.512 0.19333
117.836 0.17999999999999972
118.158 0.16332999999999975
118.479 0.19333
118.803 0.18332999999999977
119.124 0.17332999999999998
119.448 0.19666999999999968
119.769 0.21999999999999975
120.091 0.2066699999999999
120.415 0.1866699999999999
120.736 0.17999999999999972
121.06 0.18999999999999995
121.381 0.17999999999999972
121.702 0.19999999999999973
122.026 0.16332999999999975
122.347 0.21333000000000002
122.671 0.2233299999999998
122.992 0.1866699999999999
123.314 0.21999999999999975
123.637 0.19333
123.959 0.20999999999999996
124.28 0.21999999999999975
124.603 0.19999999999999973
124.925 0.20999999999999996
125.246 0.19666999999999968
125.57 0.20999999999999996
125.891 0.20999999999999996
126.214 0.19666999999999968
126.536 0.17666999999999966
126.857 0.18332999999999977
127.18 0.21999999999999975
127.501 0.19999999999999973
127.823 0.1866699999999999
128.146 0.1866699999999999
128.467 0.17999999999999972
128.788 0.18332999999999977
129.112 0.22666999999999993
129.433 0.16666999999999987
129.754 0.1566700000000001
130.077 0.21333000000000002
130.398 0.19999999999999973
130.72 0.16999999999999993
131.043 0.2033299999999998
131.364 0.19999999999999973
131.685 0.2166699999999997
132.006 0.2033299999999998
132.329 0.19666999999999968
132.65 0.17332999999999998
132.971 0.20999999999999996
133.295 0.21333000000000002
133.616 0.2066699999999999
133.937 0.1866699999999999
134.26 0.23666999999999971
134.581 0.16332999999999975
134.902 0.2033299999999998
135.223 0.19333
135.546 0.21333000000000002
135.867 0.19333
136.188 0.1566700000000001
136.511 0.23333000000000004
136.832 0.19999999999999973
137.153 0.18999999999999995
137.473 0.17666999999999966
137.796 0.2033299999999998
138.117 0.17666999999999966
138.438 0.1866699999999999
138.759 0.21999999999999975
139.082 0.18332999999999977
139.403 0.17999999999999972
139.724 0.23999999999999977
140.044 0.2066699999999999
140.367 0.17332999999999998
140.688 0.19999999999999973
141.009 0.17999999999999972
141.33 0.20999999999999996
141.653 0.21333000000000002
141.973 0.17999999999999972
142.294 0.17999999999999972
142.615 0.18332999999999977
142.938 0.2033299999999998
143.258 0.17332999999999998
143.579 0.19666999999999968
143.9 0.2166699999999997
144.22 0.2033299999999998
144.543 0.2066699999999999
144.864 0.1866699999999999
145.184 0.16999999999999993
145.505 0.17332999999999998
145.826 0.19666999999999968
146.148 0.2033299999999998
146.469 0.16666999999999987
146.79 0.19666999999999968
147.11 0.16666999999999987
147.431 0.17332999999999998
147.753 0.16332999999999975
148.074 0.18332999999999977
148.394 0.18332999999999977
148.715 0.2033299999999998
149.035 0.18332999999999977
149.358 0.18332999999999977
149.678 0.1866699999999999
149.999 0.21333000000000002
150.319 0.17332999999999998
150.64 0.18999999999999995
150.96 0.1866699999999999
151.283 0.16666999999999987
151.603 0.20999999999999996
151.924 0.19333
152.244 0.19666999999999968
152.564 0.17666999999999966
152.885 0.18999999999999995
153.205 0.19999999999999973
153.528 0.2033299999999998
153.848 0.14666999999999986
154.168 0.13999999999999968
154.489 0.18332999999999977
154.809 0.2033299999999998
155.129 0.17999999999999972
155.449 0.1866699999999999
155.77 0.2066699999999999
156.092 0.21333000000000002
156.412 0.1566700000000001
156.733 0.16999999999999993
157.053 0.18332999999999977
157.373 0.19333
157.693 0.1566700000000001
158.013 0.18332999999999977
158.334 0.18332999999999977
158.656 0.17999999999999972
158.976 0.18332999999999977
159.296 0.18999999999999995
159.616 0.1599999999999997
159.936 0.17666999999999966
160.257 0.2066699999999999
160.577 0.16332999999999975
160.897 0.2066699999999999
161.217 0.16666999999999987
161.537 0.19666999999999968
161.857 0.18332999999999977
162.177 0.17332999999999998
162.499 0.1866699999999999
162.819 0.17332999999999998
163.139 0.1599999999999997
163.459 0.1499999999999999
163.779 0.2166699999999997
164.099 0.16332999999999975
164.419 0.22666999999999993
164.739 0.16332999999999975
165.059 0.18999999999999995
165.379 0.1866699999999999
165.699 0.16999999999999993
166.019 0.1866699999999999
166.339 0.2166699999999997
166.659 0.17332999999999998
166.978 0.19999999999999973
167.298 0.17666999999999966
167.618 0.16332999999999975
167.938 0.19333
168.258 0.19666999999999968
168.578 0.20999999999999996
168.898 0.1599999999999997
169.219 0.17999999999999972
169.539 0.17999999999999972
169.859 0.19999999999999973
170.179 0.2033299999999998
170.499 0.16332999999999975
170.818 0.19666999999999968
171.138 0.19666999999999968
171.458 0.17999999999999972
171.778 0.18999999999999995
172.097 0.19666999999999968
172.417 0.18332999999999977
172.737 0.1866699999999999
173.056 0.18332999999999977
173.376 0.17332999999999998
173.696 0.1599999999999997
174.015 0.17666999999999966
174.335 0.18332999999999977
174.652 0.18999999999999995
174.972 0.16999999999999993
175.292 0.19333
175.611 0.2033299999999998
175.931 0.18332999999999977
176.25 0.1866699999999999
176.57 0.18332999999999977
176.889 0.18332999999999977
177.209 0.2066699999999999
177.528 0.2066699999999999
177.848 0.19333
178.167 0.18999999999999995
178.487 0.19999999999999973
178.806 0.19666999999999968
179.126 0.18332999999999977
179.445 0.21333000000000002
179.765 0.16666999999999987
180.084 0.18999999999999995
180.404 0.18332999999999977
180.723 0.19666999999999968
181.042 0.1866699999999999
181.36 0.17332999999999998
181.679 0.19666999999999968
181.998 0.18332999999999977
182.318 0.22666999999999993
182.637 0.18332999999999977
182.957 0.17666999999999966
183.276 0.2033299999999998
183.595 0.19333
183.914 0.18999999999999995
184.234 0.18999999999999995
184.553 0.19333
184.87 0.1566700000000001
185.189 0.19333
185.509 0.17999999999999972
185.828 0.18999999999999995
186.147 0.17332999999999998
186.466 0.17332999999999998
186.786 0.18332999999999977
187.105 0.1599999999999997
187.424 0.19999999999999973
187.741 0.19999999999999973
188.06 0.17999999999999972
188.379 0.19666999999999968
188.698 0.1866699999999999
189.018 0.2033299999999998
189.337 0.1866699999999999
189.656 0.1599999999999997
189.975 0.2033299999999998
190.292 0.18999999999999995
190.611 0.16999999999999993
190.93 0.19333
191.249 0.16999999999999993
191.568 0.17332999999999998
191.887 0.18332999999999977
192.204 0.18999999999999995
192.523 0.19333
192.842 0.18332999999999977
193.161 0.1599999999999997
193.48 0.1866699999999999
193.799 0.2066699999999999
194.116 0.19666999999999968
194.435 0.19333
194.754 0.18999999999999995
195.073 0.1866699999999999
195.391 0.21333000000000002
195.71 0.15332999999999997
196.027 0.17332999999999998
196.346 0.18332999999999977
196.665 0.18999999999999995
196.984 0.17332999999999998
197.303 0.16332999999999975
197.619 0.22999999999999998
197.938 0.16666999999999987
198.257 0.19666999999999968
198.576 0.2033299999999998
198.895 0.17999999999999972
199.211 0.16999999999999993
199.53 0.18999999999999995
199.849 0.17999999999999972
200.167 0.19999999999999973
200.484 0.2033299999999998
200.803 0.17332999999999998
201.121 0.1866699999999999
201.44 0.18332999999999977
201.759 0.16332999999999975
202.075 0.17999999999999972
202.394 0.18999999999999995
202.713 0.19999999999999973
203.031 0.18332999999999977
203.348 0.2033299999999998
203.667 0.17666999999999966
203.985 0.18332999999999977
204.304 0.20999999999999996
204.62 0.16666999999999987
204.939 0.1566700000000001
205.257 0.2066699999999999
205.574 0.17999999999999972
205.892 0.1866699999999999
206.211 0.16999999999999993
206.529 0.2066699999999999
206.846 0.1866699999999999
207.164 0.21333000000000002
207.483 0.17999999999999972
207.801 0.18332999999999977
208.118 0.17666999999999966
208.436 0.1499999999999999
208.755 0.19666999999999968
209.071 0.2066699999999999
209.389 0.17332999999999998
209.708 0.17332999999999998
210.026 0.19999999999999973
210.342 0.17666999999999966
210.661 0.2033299999999998
210.979 0.18999999999999995
211.296 0.18999999999999995
211.614 0.16332999999999975
211.932 0.17666999999999966
212.248 0.16332999999999975
212.567 0.22999999999999998
212.885 0.17332999999999998
213.201 0.17332999999999998
213.52 0.2166699999999997
213.838 0.19999999999999973
214.154 0.17666999999999966
214.472 0.19999999999999973
214.79 0.21999999999999975
215.107 0.1866699999999999
215.425 0.14666999999999986
215.743 0.19999999999999973
216.059 0.19666999999999968
216.377 0.18332999999999977
216.695 0.17666999999999966
217.012 0.17332999999999998
217.33 0.2033299999999998
217.648 0.2033299999999998
217.964 0.18999999999999995
218.282 0.2166699999999997
218.598 0.21333000000000002
218.916 0.18999999999999995
219.234 0.18332999999999977
219.55 0.19584394269504113
219.868 0.19571251393011657
220.186 0.1959369006321019
220.502 0.19589017154597954
220.82 0.19602681826871482
221.136 0.1957161188661165
221.454 0.19584051858226115
221.772 0.1958494746863133
222.088 0.19556554308101415
222.406 0.19581275359739614
222.722 0.1957700522019401
223.04 0.19588495407672823
223.358 0.19577242688404617
223.674 0.19573653607149266
223.992 0.19573684252789958
224.307 0.1958716328210146
224.625 0.1957196284852456
224.943 0.19603274074841348
225.259 0.1958931311485732
225.577 0.19567834497200076
225.893 0.21333000000000002
226.21 0.19666999999999968
226.526 0.19666999999999968
226.844 0.20999999999999996
227.162 0.18999999999999995
227.478 0.19666999999999968
227.795 0.1866699999999999
228.111 0.20999999999999996
228.429 0.17332999999999998
228.744 0.19999999999999973
229.062 0.15332999999999997
229.378 0.2033299999999998
229.696 0.17332999999999998
230.011 0.19999999999999973
230.329 0.22666999999999993
230.647 0.18332999999999977
230.962 0.19999999999999973
231.28 0.17999999999999972
231.595 0.17999999999999972
231.913 0.16666999999999987
232.229 0.17666999999999966
232.546 0.17999999999999972
232.862 0.19333
233.179 0.19999999999999973
233.495 0.2066699999999999
233.813 0.17999999999999972
234.128 0.16999999999999993
234.446 0.19333
234.761 0.17332999999999998
235.079 0.17332999999999998
235.394 0.15332999999999997
235.712 0.19333
236.027 0.17999999999999972
236.344 0.18999999999999995
236.66 0.18332999999999977
236.977 0.17332999999999998
237.293 0.1866699999999999
237.61 0.16999999999999993
237.926 0.18332999999999977
238.243 0.16999999999999993
238.558 0.17666999999999966
238.876 0.17332999999999998
239.191 0.2233299999999998
239.508 0.19666999999999968
239.824 0.1866699999999999
240.139 0.17666999999999966
240.456 0.1566700000000001
240.772 0.2066699999999999
241.089 0.1499999999999999
241.404 0.18332999999999977
241.721 0.1599999999999997
242.037 0.1866699999999999
242.354 0.2033299999999998
242.669 0.18332999999999977
242.984 0.21333000000000002
243.302 0.2233299999999998
243.617 0.19666999999999968
243.934 0.17999999999999972
244.249 0.16332999999999975
244.566 0.16332999999999975
244.881 0.19666999999999968
245.197 0.17999999999999972
245.514 0.2033299999999998
245.829 0.18332999999999977
246.146 0.17332999999999998
246.461 0.19999999999999973
246.776 0.2033299999999998
247.093 0.18332999999999977
247.408 0.17332999999999998
247.725 0.16666999999999987
248.04 0.16666999999999987
248.355 0.2066699999999999
248.672 0.17332999999999998
248.987 0.1566700000000001
249.305 0.17999999999999972
249.619 0.1566700000000001
249.934 0.18999999999999995
250.251 0.16999999999999993
250.566 0.1599999999999997
250.883 0.18332999999999977
251.198 0.18999999999999995
251.513 0.18999999999999995
251.83 0.18332999999999977
252.145 0.2033299999999998
252.46 0.18999999999999995
252.777 0.16666999999999987
253.092 0.1599999999999997
253.406 0.18999999999999995
253.723 0.18999999999999995
254.038 0.17332999999999998
254.353 0.18332999999999977
254.67 0.18332999999999977
254.985 0.19999999999999973
255.299 0.17332999999999998
255.616 0.16666999999999987
255.931 0.1599999999999997
256.246 0.17666999999999966
256.562 0.1499999999999999
256.877 0.17666999999999966
257.192 0.19666999999999968
257.509 0.19999999999999973
257.823 0.17666999999999966
258.138 0.17332999999999998
258.455 0.18999999999999995
258.769 0.1566700000000001
259.084 0.2066699999999999
259.401 0.15332999999999997
259.715 0.1566700000000001
260.03 0.18332999999999977
260.347 0.1599999999999997
260.661 0.19333
260.976 0.16999999999999993
261.29 0.17999999999999972
261.607 0.2033299999999998
261.922 0.19333
262.236 0.17999999999999972
262.553 0.19333
262.867 0.2066699999999999
263.182 0.16999999999999993
263.496 0.1599999999999997
263.813 0.1866699999999999
264.127 0.17332999999999998
264.442 0.17999999999999972
264.756 0.17332999999999998
265.073 0.17666999999999966
265.387 0.2033299999999998
265.701 0.18332999999999977
266.016 0.1866699999999999
266.332 0.16666999999999987
266.647 0.2066699999999999
266.961 0.16999999999999993
267.275 0.21999999999999975
267.592 0.1599999999999997
267.906 0.1866699999999999
268.22 0.1866699999999999
268.535 0.18999999999999995
268.851 0.17332999999999998
269.165 0.18332999999999977
269.48 0.16999999999999993
269.794 0.19333
270.108 0.17332999999999998
270.425 0.15332999999999997
270.739 0.18332999999999977
271.053 0.14666999999999986
271.367 0.1566700000000001
271.681 0.1566700000000001
271.998 0.17332999999999998
272.312 0.1866699999999999
272.626 0.19999999999999973
272.94 0.18999999999999995
273.254 0.17332999999999998
273.571 0.1299999999999999
273.885 0.17999999999999972
274.199 0.2033299999999998
274.513 0.2233299999999998
274.827 0.1599999999999997
275.143 0.17999999999999972
275.457 0.16999999999999993
275.771 0.1866699999999999
276.085 0.21333000000000002
276.399 0.17999999999999972
276.714 0.16666999999999987
277.03 0.18999999999999995
277.344 0.18332999999999977
277.658 0.18332999999999977
277.972 0.18332999999999977
278.286 0.19999999999999973
278.6 0.19999999999999973
278.914 0.18332999999999977
279.23 0.20999999999999996
279.543 0.1866699999999999
279.857 0.18999999999999995
280.171 0.16666999999999987
280.485 0.19333
280.799 0.18999999999999995
281.113 0.16332999999999975
281.429 0.2066699999999999
281.743 0.18332999999999977
282.057 0.16999999999999993
282.371 0.17999999999999972
282.684 0.18332999999999977
282.998 0.19999999999999973
283.312 0.1866699999999999
283.626 0.18999999999999995
283.94 0.18332999999999977
284.255 0.1866699999999999
284.569 0.19666999999999968
284.883 0.16666999999999987
285.197 0.16666999999999987
285.51 0.18999999999999995
285.824 0.18332999999999977
286.138 0.18999999999999995
286.452 0.17666999999999966
286.765 0.18332999999999977
287.079 0.18999999999999995
287.393 0.16666999999999987
287.706 0.2033299999999998
288.022 0.19333
288.336 0.19999999999999973
288.649 0.15332999999999997
288.963 0.17999999999999972
289.276 0.16999999999999993
289.59 0.17999999999999972
289.904 0.19999999999999973
290.217 0.19999999999999973
290.531 0.18999999999999995
290.844 0.1866699999999999
291.158 0.17666999999999966
291.471 0.17999999999999972
291.785 0.18332999999999977
292.098 0.1566700000000001
292.412 0.21333000000000002
292.725 0.17332999999999998
293.039 0.18332999999999977
293.352 0.1866699999999999
293.666 0.1499999999999999
293.979 0.17999999999999972
294.293 0.2033299999999998
294.606 0.18999999999999995
294.92 0.18999999999999995
295.233 0.19999999999999973
295.546 0.2033299999999998
295.86 0.18332999999999977
296.173 0.2066699999999999
296.486 0.18332999999999977
296.8 0.18332999999999977
297.113 0.18332999999999977
297.427 0.21999999999999975
297.74 0.19999999999999973
298.053 0.18999999999999995
298.366 0.19333
298.68 0.2066699999999999
298.993 0.18999999999999995
299.306 0.19333
299.62 0.2166699999999997
299.933 0.2033299999999998
300.246 0.18999999999999995
300.559 0.19666999999999968
300.872 0.17666999999999966
301.186 0.19666999999999968
301.499 0.18999999999999995
301.812 0.17666999999999966
302.125 0.1866699999999999
302.438 0.1866699999999999
302.751 0.16666999999999987
303.065 0.17999999999999972
303.378 0.18999999999999995
303.691 0.17666999999999966
304.004 0.2033299999999998
304.317 0.19333
304.63 0.19333
304.941 0.18999999999999995
305.254 0.17666999999999966
305.567 0.18332999999999977
305.88 0.19999999999999973
306.193 0.2033299999999998
306.506 0.20999999999999996
306.819 0.17999999999999972
307.132 0.21333000000000002
307.445 0.19999999999999973
307.758 0.18332999999999977
308.071 0.16999999999999993
308.384 0.2066699999999999
308.695 0.20999999999999996
309.008 0.19999999999999973
309.321 0.17332999999999998
309.634 0.1866699999999999
309.947 0.2233299999999998
310.26 0.16666999999999987
310.573 0.2033299999999998
310.885 0.19666999999999968
311.198 0.18332999999999977
311.509 0.20999999999999996
311.822 0.22999999999999998
312.135 0.21333000000000002
312.448 0.2066699999999999
312.76 0.19333
313.073 0.19666999999999968
313.386 0.19999999999999973
313.699 0.17999999999999972
314.009 0.19999999999999973
314.322 0.18999999999999995
314.635 0.2166699999999997
314.948 0.17999999999999972
315.26 0.19999999999999973
315.573 0.21333000000000002
315.884 0.18332999999999977
316.196 0.21333000000000002
316.509 0.21333000000000002
316.822 0.2066699999999999
317.134 0.21333000000000002
317.447 0.2066699999999999
317.758 0.2066699999999999
318.07 0.18332999999999977
318.383 0.19999999999999973
318.696 0.21333000000000002
319.008 0.22666999999999993
319.321 0.18999999999999995
319.631 0.16666999999999987
319.944 0.2033299999999998
320.256 0.19999999999999973
320.569 0.2166699999999997
320.881 0.24332999999999982
321.192 0.19333
321.504 0.20999999999999996
321.817 0.19333
322.129 0.19333
322.44 0.2066699999999999
322.752 0.17999999999999972
323.065 0.2066699999999999
323.377 0.2166699999999997
323.69 0.2066699999999999
324.0 0.19333
324.312 0.19999999999999973
324.625 0.2033299999999998
324.937 0.19666999999999968
325.248 0.1866699999999999
325.56 0.19666999999999968
325.872 0.18999999999999995
326.185 0.18999999999999995
326.495 0.20999999999999996
326.807 0.21333000000000002
327.12 0.22666999999999993
327.432 0.2066699999999999
327.742 0.21999999999999975
328.054 0.23333000000000004
328.367 0.17666999999999966
328.679 0.19999999999999973
328.989 0.18999999999999995
329.301 0.2166699999999997
329.614 0.19666999999999968
329.926 0.17999999999999972
330.236 0.18999999999999995
330.548 0.19999999999999973
330.86 0.19666999999999968
331.17 0.22999999999999998
331.483 0.2066699999999999
331.795 0.1866699999999999
332.107 0.24332999999999982
332.417 0.2233299999999998
332.729 0.17999999999999972
333.041 0.19999999999999973
333.351 0.2033299999999998
333.663 0.2066699999999999
333.976 0.2033299999999998
334.286 0.23666999999999971
334.598 0.21999999999999975
334.91 0.2233299999999998
335.22 0.19333
335.532 0.20999999999999996
335.844 0.19999999999999973
336.154 0.20999999999999996
336.466 0.2066699999999999
336.778 0.21333000000000002
337.088 0.21999999999999975
337.4 0.21333000000000002
337.712 0.2033299999999998
338.021 0.2033299999999998
338.333 0.2233299999999998
338.645 0.23333000000000004
338.955 0.23999999999999977
339.267 0.1866699999999999
339.579 0.19333
339.889 0.2166699999999997
340.201 0.23333000000000004
340.513 0.23666999999999971
340.822 0.17666999999999966
341.134 0.21333000000000002
341.446 0.2233299999999998
341.756 0.23333000000000004
342.068 0.22666999999999993
342.377 0.21333000000000002
342.689 0.21333000000000002
343.001 0.20999999999999996
343.311 0.22666999999999993
343.622 0.23999999999999977
343.932 0.19666999999999968
344.244 0.2166699999999997
344.555 0.21999999999999975
344.865 0.21333000000000002
345.177 0.2066699999999999
345.486 0.22999999999999998
345.798 0.21999999999999975
346.11 0.24332999999999982
346.419 0.2066699999999999
346.731 0.2033299999999998
347.041 0.19666999999999968
347.352 0.20999999999999996
347.662 0.2033299999999998
347.973 0.21999999999999975
348.285 0.22999999999999998
348.595 0.21333000000000002
348.906 0.23333000000000004
349.216 0.2166699999999997
349.527 0.2166699999999997
349.837 0.22666999999999993
350.148 0.25
350.46 0.23999999999999977
350.769 0.23666999999999971
351.081 0.21333000000000002
351.39 0.2233299999999998
351.702 0.22666999999999993
352.011 0.2066699999999999
352.323 0.20999999999999996
352.632 0.2033299999999998
352.943 0.23333000000000004
353.253 0.23666999999999971
353.564 0.2033299999999998
353.874 0.2233299999999998
354.185 0.2166699999999997
354.494 0.21999999999999975
354.806 0.25666999999999973
355.117 0.22666999999999993
355.426 0.22999999999999998
355.738 0.23333000000000004
356.047 0.22999999999999998
356.358 0.21333000000000002
356.668 0.22999999999999998
356.979 0.24666999999999994
357.288 0.23666999999999971
357.599 0.2066699999999999
357.909 0.17666999999999966
358.218 0.19999999999999973
358.529 0.24332999999999982
358.838 0.2166699999999997
359.15 0.24332999999999982
359.459 0.24666999999999994
359.77 0.19666999999999968
360.079 0.21999999999999975
360.39 0.22666999999999993
360.699 0.24332999999999982
361.011 0.20999999999999996
361.32 0.20999999999999996
361.631 0.2066699999999999
361.94 0.20999999999999996
362.251 0.21333000000000002
362.56 0.17666999999999966
362.869 0.24332999999999982
363.18 0.22999999999999998
363.489 0.2066699999999999
363.8 0.2033299999999998
364.109 0.2166699999999997
364.42 0.22999999999999998
364.729 0.22666999999999993
365.04 0.22999999999999998
365.349 0.22999999999999998
365.658 0.21333000000000002
365.969 0.27
366.278 0.2166699999999997
366.589 0.2033299999999998
366.898 0.26332999999999984
367.207 0.21333000000000002
367.518 0.2033299999999998
367.827 0.2166699999999997
368.138 0.2233299999999998
368.447 0.2066699999999999
368.756 0.23333000000000004
369.066 0.2166699999999997
369.375 0.23333000000000004
369.686 0.2166699999999997
369.995 0.2166699999999997
370.304 0.21333000000000002
370.615 0.25
370.923 0.18332999999999977
371.234 0.24332999999999982
371.543 0.24332999999999982
371.852 0.23333000000000004
372.163 0.22666999999999993
372.471 0.24666999999999994
372.78 0.19999999999999973
373.091 0.23666999999999971
373.399 0.25333000000000006
373.708 0.23666999999999971
374.019 0.23333000000000004
374.327 0.23666999999999971
374.636 0.24666999999999994
374.947 0.22999999999999998
375.255 0.23333000000000004
375.566 0.21333000000000002
375.875 0.26332999999999984
376.183 0.26332999999999984
376.494 0.23333000000000004
376.803 0.23666999999999971
377.111 0.25666999999999973
377.42 0.21999999999999975
377.73 0.22666999999999993
378.039 0.24332999999999982
378.347 0.24666999999999994
378.658 0.20999999999999996
378.966 0.24666999999999994
379.275 0.2233299999999998
379.586 0.23999999999999977
379.894 0.22999999999999998
380.202 0.22666999999999993
380.513 0.21999999999999975
380.821 0.2599999999999998
381.13 0.24666999999999994
381.438 0.22666999999999993
381.749 0.23999999999999977
382.057 0.20999999999999996
382.366 0.2733300000000001
382.676 0.24666999999999994
382.984 0.2233299999999998
383.293 0.24666999999999994
383.601 0.2599999999999998
383.911 0.23333000000000004
384.22 0.22666999999999993
384.528 0.25
384.836 0.23333000000000004
385.147 0.2599999999999998
385.455 0.24666999999999994
385.763 0.24666999999999994
386.072 0.2599999999999998
386.382 0.23666999999999971
386.69 0.2166699999999997
386.998 0.2733300000000001
387.307 0.2733300000000001
387.617 0.23666999999999971
387.925 0.2599999999999998
388.233 0.28667
388.542 0.2599999999999998
388.852 0.25666999999999973
389.16 0.27
389.468 0.20999999999999996
389.776 0.2733300000000001
390.084 0.26332999999999984
390.395 0.24332999999999982
390.703 0.23999999999999977
391.011 0.26332999999999984
391.319 0.24332999999999982
391.627 0.2166699999999997
391.937 0.24666999999999994
392.245 0.27666999999999975
392.553 0.28667
392.861 0.3033299999999999
393.169 0.26332999999999984
393.479 0.29666999999999977
393.787 0.22666999999999993
394.095 0.27666999999999975
394.403 0.2733300000000001
394.711 0.26332999999999984
395.021 0.24332999999999982
395.329 0.25333000000000006
395.637 0.2799999999999998
395.945 0.2799999999999998
396.253 0.25666999999999973
396.561 0.29000000000000004
396.871 0.2733300000000001
397.179 0.26332999999999984
397.487 0.26666999999999996
397.795 0.29000000000000004
398.102 0.26332999999999984
398.41 0.28667
398.718 0.27666999999999975
399.028 0.25666999999999973
399.336 0.23666999999999971
399.644 0.27
399.951 0.23999999999999977
400.259 0.30667
400.567 0.28332999999999986
400.875 0.29666999999999977
401.183 0.28332999999999986
401.492 0.31000000000000005
401.8 0.28667
402.108 0.28667
402.416 0.26332999999999984
402.723 0.25333000000000006
403.031 0.26666999999999996
403.339 0.26332999999999984
403.646 0.29000000000000004
403.954 0.27
404.262 0.26332999999999984
404.571 0.24332999999999982
404.879 0.29666999999999977
405.187 0.25666999999999973
405.494 0.23999999999999977
405.802 0.29666999999999977
406.109 0.27
406.417 0.2733300000000001
406.725 0.2999999999999998
407.032 0.3033299999999999
407.34 0.2733300000000001
407.647 0.29000000000000004
407.955 0.26666999999999996
408.262 0.23333000000000004
408.572 0.28667
408.879 0.28667
409.187 0.2933300000000001
409.494 0.2599999999999998
409.802 0.28667
410.109 0.2999999999999998
410.417 0.2599999999999998
410.724 0.29000000000000004
411.032 0.2999999999999998
411.339 0.25333000000000006
411.646 0.25333000000000006
411.954 0.2999999999999998
412.261 0.29000000000000004
412.569 0.25333000000000006
412.876 0.30667
413.183 0.2599999999999998
413.491 0.2733300000000001
413.798 0.27
414.105 0.27666999999999975
414.413 0.2733300000000001
414.72 0.27
415.027 0.25333000000000006
415.335 0.26666999999999996
415.642 0.23666999999999971
415.949 0.29000000000000004
416.256 0.26666999999999996
416.564 0.23999999999999977
416.871 0.29000000000000004
417.178 0.28332999999999986
417.485 0.29000000000000004
417.792 0.27
418.1 0.27
418.407 0.2799999999999998
418.714 0.2999999999999998
419.021 0.2599999999999998
419.328 0.26666999999999996
419.635 0.2599999999999998
419.943 0.27
420.25 0.22999999999999998
420.557 0.25
420.864 0.24332999999999982
421.171 0.27
421.476 0.26666999999999996
421.783 0.24332999999999982
422.09 0.2933300000000001
422.397 0.2599999999999998
422.704 0.26332999999999984
423.011 0.2733300000000001
423.318 0.2799999999999998
423.625 0.29000000000000004
423.932 0.26666999999999996
424.239 0.27
424.546 0.28667
424.853 0.2733300000000001
425.16 0.24666999999999994
425.465 0.26666999999999996
425.772 0.24332999999999982
426.079 0.24332999999999982
426.386 0.24666999999999994
426.693 0.25666999999999973
427.0 0.25
427.307 0.27666999999999975
427.613 0.28667
427.92 0.2599999999999998
428.227 0.25
428.532 0.25333000000000006
428.839 0.23666999999999971
429.146 0.2799999999999998
429.452 0.2599999999999998
429.759 0.2599999999999998
430.066 0.24666999999999994
430.373 0.26332999999999984
430.68 0.22999999999999998
430.984 0.24666999999999994
431.291 0.27666999999999975
431.598 0.23999999999999977
431.905 0.27666999999999975
432.211 0.24332999999999982
432.518 0.23666999999999971
432.825 0.24666999999999994
433.129 0.2233299999999998
433.436 0.22666999999999993
433.743 0.26332999999999984
434.049 0.25666999999999973
434.356 0.2599999999999998
434.663 0.2599999999999998
434.967 0.24332999999999982
435.274 0.28667
435.58 0.25
435.887 0.23999999999999977
436.194 0.27
436.498 0.16332999999999975
436.805 0.26332999999999984
437.111 0.2733300000000001
437.418 0.2599999999999998
437.724 0.22999999999999998
438.029 0.2733300000000001
438.335 0.26666999999999996
438.642 0.24332999999999982
438.948 0.2599999999999998
439.255 0.24332999999999982
439.559 0.24666999999999994
439.866 0.24666999999999994
440.172 0.24666999999999994
440.479 0.20999999999999996
440.785 0.27
441.089 0.2066699999999999
441.396 0.24332999999999982
441.702 0.2166699999999997
442.009 0.22999999999999998
442.313 0.23666999999999971
442.619 0.23666999999999971
442.926 0.22666999999999993
443.232 0.23333000000000004
443.536 0.25333000000000006
443.843 0.25
444.149 0.21999999999999975
444.455 0.25
444.76 0.22999999999999998
445.066 0.19999999999999973
445.372 0.25
445.678 0.20999999999999996
445.983 0.26332999999999984
446.289 0.23999999999999977
446.595 0.23333000000000004
446.901 0.25333000000000006
447.206 0.25666999999999973
447.512 0.27
447.818 0.23666999999999971
448.122 0.24666999999999994
448.428 0.21999999999999975
448.734 0.2799999999999998
449.041 0.23333000000000004
449.345 0.23999999999999977
449.651 0.22999999999999998
449.957 0.24332999999999982
450.261 0.22666999999999993
450.567 0.19999999999999973
450.873 0.23999999999999977
451.177 0.25333000000000006
451.483 0.23999999999999977
451.789 0.22999999999999998
452.093 0.24666999999999994
452.399 0.23666999999999971
452.705 0.26666999999999996
453.009 0.21999999999999975
453.315 0.27
453.621 0.25
453.925 0.23333000000000004
454.231 0.1866699999999999
454.537 0.21333000000000002
454.841 0.21999999999999975
455.147 0.25
455.453 0.24332999999999982
455.757 0.23999999999999977
456.063 0.27
456.369 0.23333000000000004
456.673 0.23999999999999977
456.979 0.23333000000000004
457.285 0.23666999999999971
457.588 0.25
457.894 0.23333000000000004
458.198 0.23999999999999977
458.504 0.23333000000000004
458.81 0.25
459.113 0.25
459.419 0.24332999999999982
459.723 0.25333000000000006
460.029 0.23333000000000004
460.335 0.2233299999999998
460.638 0.21999999999999975
460.944 0.23333000000000004
461.248 0.27
461.554 0.25666999999999973
461.859 0.25333000000000006
462.163 0.22666999999999993
462.469 0.2599999999999998
462.772 0.2233299999999998
463.078 0.24332999999999982
463.384 0.20999999999999996
463.687 0.22999999999999998
463.993 0.2166699999999997
464.297 0.25333000000000006
464.602 0.24332999999999982
464.906 0.24332999999999982
465.211 0.2799999999999998
465.517 0.2599999999999998
465.821 0.25333000000000006
466.126 0.2599999999999998
466.43 0.27666999999999975
466.735 0.2733300000000001
467.039 0.25666999999999973
467.344 0.28667
467.648 0.25666999999999973
467.953 0.25
468.257 0.20999999999999996
468.562 0.23999999999999977
468.868 0.23666999999999971
469.171 0.27
469.477 0.2799999999999998
469.78 0.29000000000000004
470.086 0.23666999999999971
470.389 0.28667
470.694 0.23333000000000004
470.998 0.27666999999999975
471.303 0.29666999999999977
471.607 0.36999999999999966
471.912 0.36999999999999966
472.215 0.4333300000000002
472.521 0.4700000000000002
472.824 0.44999999999999973
473.129 0.4866699999999997
473.433 0.46667000000000014
473.738 0.48
474.041 0.4866699999999997
474.347 0.4866699999999997
474.65 0.45666999999999947
474.955 0.42332999999999954
475.258 0.4099999999999997
475.564 0.3333299999999997
475.867 0.31332999999999966
476.17 0.28667
476.475 0.29666999999999977
476.779 0.25333000000000006
477.084 0.26666999999999996
477.387 0.2033299999999998
477.692 0.29000000000000004
477.995 0.21999999999999975
478.3 0.25333000000000006
478.604 0.25
478.907 0.2599999999999998
479.212 0.2599999999999998
479.515 0.24332999999999982
479.82 0.25666999999999973
480.123 0.2066699999999999
480.428 0.25333000000000006
480.731 0.23666999999999971
481.036 0.22666999999999993
481.339 0.25
481.642 0.24332999999999982
481.948 0.25333000000000006
482.251 0.25333000000000006
482.556 0.26666999999999996
482.859 0.21333000000000002
483.162 0.25
483.467 0.24332999999999982
483.77 0.23666999999999971
484.075 0.18999999999999995
484.377 0.2233299999999998
484.68 0.27
484.985 0.22999999999999998
485.288 0.2166699999999997
485.593 0.25333000000000006
485.896 0.26332999999999984
486.199 0.2233299999999998
486.504 0.24666999999999994
486.807 0.25
487.11 0.23333000000000004
487.414 0.25333000000000006
487.717 0.23666999999999971
488.02 0.21999999999999975
488.325 0.25333000000000006
488.628 0.23999999999999977
488.933 0.24666999999999994
489.235 0.25333000000000006
489.538 0.23333000000000004
489.843 0.22999999999999998
490.146 0.23666999999999971
490.448 0.22999999999999998
490.753 0.22999999999999998
491.056 0.25333000000000006
491.359 0.22999999999999998
491.663 0.23999999999999977
491.966 0.24332999999999982
492.269 0.21333000000000002
492.573 0.23333000000000004
492.876 0.2166699999999997
493.179 0.2599999999999998
493.481 0.21333000000000002
493.786 0.2733300000000001
494.089 0.25
494.391 0.24666999999999994
494.696 0.24666999999999994
494.998 0.24332999999999982
495.301 0.21333000000000002
495.606 0.25
495.908 0.2166699999999997
496.211 0.2733300000000001
496.513 0.25333000000000006
496.818 0.27666999999999975
497.12 0.22666999999999993
497.423 0.27
497.727 0.24332999999999982
498.03 0.25333000000000006
498.332 0.2233299999999998
498.635 0.24666999999999994
498.939 0.2033299999999998
499.242 0.23999999999999977
499.544 0.24666999999999994
499.847 0.21333000000000002
500.151 0.23666999999999971
500.453 0.26666999999999996
500.756 0.25333000000000006
501.058 0.25
501.363 0.23333000000000004
501.665 0.26666999999999996
501.967 0.19999999999999973
502.27 0.25666999999999973
502.574 0.2599999999999998
502.876 0.23333000000000004
503.179 0.21333000000000002
503.481 0.2933300000000001
503.783 0.24332999999999982
504.088 0.23333000000000004
504.39 0.23999999999999977
504.692 0.21333000000000002
504.994 0.28667
505.297 0.25
505.601 0.23999999999999977
505.903 0.25333000000000006
506.205 0.2599999999999998
506.508 0.23999999999999977
506.81 0.25333000000000006
507.114 0.26332999999999984
507.416 0.23999999999999977
507.718 0.22999999999999998
508.02 0.25666999999999973
508.323 0.26332999999999984
508.627 0.2166699999999997
508.929 0.25666999999999973
509.231 0.25666999999999973
509.533 0.25
509.835 0.25
510.137 0.27666999999999975
510.441 0.19999999999999973
510.743 0.24332999999999982
511.046 0.2733300000000001
511.348 0.22999999999999998
511.65 0.22999999999999998
511.952 0.2733300000000001
512.254 0.28667
512.558 0.21999999999999975
512.86 0.25
513.162 0.2599999999999998
513.464 0.22666999999999993
513.766 0.2733300000000001
514.068 0.26666999999999996
514.37 0.28332999999999986
514.671 0.3166699999999998
514.975 0.29000000000000004
515.277 0.25333000000000006
515.579 0.2733300000000001
515.881 0.24666999999999994
516.183 0.25666999999999973
516.485 0.29000000000000004
516.787 0.26332999999999984
517.089 0.2799999999999998
517.39 0.27
517.694 0.26666999999999996
517.996 0.25666999999999973
518.298 0.2799999999999998
518.6 0.27
518.902 0.24666999999999994
519.203 0.26332999999999984
519.505 0.2733300000000001
519.807 0.24666999999999994
520.109 0.28332999999999986
520.41 0.25
520.712 0.2933300000000001
521.014 0.2599999999999998
521.316 0.23999999999999977
521.617 0.23999999999999977
521.921 0.3033299999999999
522.223 0.24332999999999982
522.524 0.24332999999999982
522.826 0.22666999999999993
523.128 0.2233299999999998
523.429 0.25
523.731 0.20999999999999996
524.033 0.24666999999999994
524.334 0.26666999999999996
524.636 0.24666999999999994
524.937 0.25333000000000006
525.239 0.24332999999999982
525.541 0.26332999999999984
525.842 0.20999999999999996
526.144 0.25
526.445 0.24666999999999994
526.747 0.2733300000000001
527.048 0.22666999999999993
527.35 0.25333000000000006
527.651 0.27
527.953 0.25666999999999973
528.254 0.25333000000000006
528.556 0.25333000000000006
528.857 0.24666999999999994
529.159 0.24666999999999994
529.46 0.23999999999999977
529.762 0.24666999999999994
530.063 0.29000000000000004
530.364 0.25
530.666 0.25666999999999973
530.967 0.22666999999999993
531.269 0.25
531.57 0.27
531.871 0.25666999999999973
532.173 0.27
532.474 0.25333000000000006
532.775 0.26332999999999984
533.077 0.26332999999999984
533.378 0.23999999999999977
533.679 0.25333000000000006
533.981 0.24666999999999994
534.28 0.21999999999999975
534.581 0.17999999999999972
534.882 0.22999999999999998
535.184 0.22666999999999993
535.485 0.25333000000000006
535.786 0.22999999999999998
536.087 0.27
536.389 0.22999999999999998
536.69 0.24666999999999994
536.991 0.21999999999999975
537.292 0.2166699999999997
537.593 0.22666999999999993
537.894 0.20999999999999996
538.194 0.2166699999999997
538.495 0.22999999999999998
538.796 0.24332999999999982
539.097 0.23333000000000004
539.398 0.20999999999999996
539.699 0.2066699999999999
540.0 0.2066699999999999
540.301 0.21333000000000002
540.603 0.23999999999999977
540.904 0.21333000000000002
541.203 0.23666999999999971
541.504 0.17666999999999966
541.805 0.21999999999999975
542.106 0.2166699999999997
542.407 0.22666999999999993
542.708 0.22666999999999993
543.009 0.21999999999999975
543.308 0.23999999999999977
543.609 0.21999999999999975
543.91 0.1866699999999999
544.211 0.19666999999999968
544.512 0.16999999999999993
544.812 0.21333000000000002
545.113 0.21333000000000002
545.412 0.21999999999999975
545.713 0.19999999999999973
546.014 0.2066699999999999
546.315 0.2166699999999997
546.616 0.17999999999999972
546.917 0.20999999999999996
547.216 0.2166699999999997
547.516 0.2066699999999999
547.817 0.18999999999999995
548.118 0.20999999999999996
548.419 0.17332999999999998
548.72 0.2166699999999997
549.018 0.20999999999999996
549.319 0.19666999999999968
549.62 0.19999999999999973
549.921 0.17332999999999998
550.222 0.19666999999999968
550.52 0.16666999999999987
550.821 0.1866699999999999
551.122 0.23999999999999977
551.423 0.16999999999999993
551.721 0.17666999999999966
552.022 0.19333
552.323 0.23333000000000004
552.623 0.20999999999999996
552.924 0.17666999999999966
553.223 0.17666999999999966
553.523 0.16666999999999987
553.824 0.17999999999999972
554.125 0.16999999999999993
554.423 0.1866699999999999
554.724 0.17666999999999966
555.024 0.17999999999999972
555.325 0.17999999999999972
555.623 0.21999999999999975
555.924 0.17666999999999966
556.225 0.19666999999999968
556.525 0.17999999999999972
556.824 0.2033299999999998
557.124 0.2033299999999998
557.425 0.16999999999999993
557.725 0.23333000000000004
558.024 0.1499999999999999
558.324 0.17666999999999966
558.625 0.17999999999999972
558.923 0.18332999999999977
559.224 0.1866699999999999
559.524 0.20999999999999996
559.824 0.18999999999999995
560.123 0.17666999999999966
560.423 0.18332999999999977
560.724 0.18999999999999995
561.022 0.17666999999999966
561.323 0.1866699999999999
561.623 0.2166699999999997
561.921 0.17332999999999998
562.222 0.16666999999999987
562.522 0.16999999999999993
562.822 0.20999999999999996
563.121 0.16332999999999975
563.421 0.1866699999999999
563.721 0.1866699999999999
564.02 0.19333
564.32 0.19666999999999968
564.62 0.17999999999999972
564.918 0.1866699999999999
565.219 0.19333
565.519 0.16999999999999993
565.817 0.17332999999999998
566.117 0.17999999999999972
566.418 0.17999999999999972
566.716 0.2033299999999998
567.016 0.21999999999999975
567.314 0.19333
567.614 0.19333
567.914 0.1866699999999999
568.213 0.17666999999999966
568.513 0.1566700000000001
568.813 0.16666999999999987
569.111 0.18332999999999977
569.411 0.19333
569.709 0.17666999999999966
570.009 0.17666999999999966
570.309 0.2033299999999998
570.608 0.19999999999999973
570.908 0.1599999999999997
571.208 0.17999999999999972
571.506 0.20999999999999996
571.806 0.16999999999999993
572.104 0.16332999999999975
572.404 0.2233299999999998
572.704 0.16666999999999987
573.002 0.18999999999999995
573.302 0.18999999999999995
573.6 0.17666999999999966
573.9 0.18999999999999995
574.198 0.19666999999999968
574.498 0.18999999999999995
574.798 0.1866699999999999
575.096 0.21333000000000002
575.395 0.17666999999999966
575.693 0.16666999999999987
575.993 0.19333
576.291 0.19333
576.591 0.18332999999999977
576.891 0.17332999999999998
577.189 0.17332999999999998
577.489 0.16332999999999975
577.786 0.2033299999999998
578.086 0.19666999999999968
578.384 0.18999999999999995
578.684 0.2033299999999998
578.982 0.18332999999999977
579.281 0.18999999999999995
579.579 0.19999999999999973
579.879 0.17332999999999998
580.177 0.17999999999999972
580.477 0.16332999999999975
580.774 0.17332999999999998
581.074 0.18999999999999995
581.372 0.17999999999999972
581.671 0.18999999999999995
581.969 0.2033299999999998
582.269 0.17332999999999998
582.567 0.17999999999999972
582.866 0.17332999999999998
583.164 0.18999999999999995
583.464 0.19666999999999968
583.761 0.15332999999999997
584.061 0.18999999999999995
584.358 0.17666999999999966
584.658 0.19666999999999968
584.956 0.2066699999999999
585.255 0.16666999999999987
585.553 0.17666999999999966
585.852 0.16332999999999975
586.15 0.17332999999999998
586.45 0.17999999999999972
586.747 0.18332999999999977
587.047 0.1866699999999999
587.344 0.1866699999999999
587.644 0.18332999999999977
587.941 0.18332999999999977
588.239 0.2033299999999998
588.538 0.18332999999999977
588.836 0.2066699999999999
589.135 0.17666999999999966
589.432 0.18999999999999995
589.732 0.16332999999999975
590.029 0.19999999999999973
590.329 0.17666999999999966
590.626 0.19666999999999968
590.924 0.19333
591.223 0.2066699999999999
591.52 0.16666999999999987
591.82 0.20999999999999996
592.117 0.18332999999999977
592.415 0.17666999999999966
592.714 0.2033299999999998
593.011 0.2033299999999998
593.311 0.19333
593.608 0.21333000000000002
593.905 0.21333000000000002
594.204 0.20999999999999996
594.502 0.2166699999999997
594.801 0.19333
595.098 0.21333000000000002
595.396 0.21333000000000002
595.695 0.1599999999999997
595.992 0.1866699999999999
596.291 0.15332999999999997
596.589 0.18999999999999995
596.886 0.19666999999999968
597.185 0.20999999999999996
597.482 0.1866699999999999
597.779 0.2066699999999999
598.078 0.19666999999999968
598.376 0.21333000000000002
598.673 0.2166699999999997
598.972 0.16666999999999987
599.269 0.18332999999999977
599.566 0.15332999999999997
599.865 0.19333
600.162 0.19999999999999973
600.459 0.1866699999999999
600.759 0.18332999999999977
601.056 0.18999999999999995
601.353 0.19666999999999968
601.652 0.2033299999999998
601.949 0.19333
602.246 0.2033299999999998
602.545 0.20999999999999996
602.842 0.18332999999999977
603.139 0.19333
603.438 0.16666999999999987
603.735 0.19333
604.032 0.21333000000000002
604.331 0.17332999999999998
604.628 0.16666999999999987
604.925 0.19999999999999973
605.222 0.1866699999999999
605.521 0.16999999999999993
605.818 0.17666999999999966
606.114 0.17999999999999972
606.413 0.2033299999999998
606.71 0.17999999999999972
607.007 0.2033299999999998
607.304 0.17666999999999966
607.603 0.18332999999999977
607.9 0.16999999999999993
608.196 0.17999999999999972
608.493 0.2066699999999999
608.792 0.17666999999999966
609.089 0.17332999999999998
609.386 0.18999999999999995
609.682 0.1866699999999999
609.981 0.18999999999999995
610.278 0.1866699999999999
610.575 0.17999999999999972
610.872 0.19333
611.17 0.18999999999999995
611.467 0.17999999999999972
611.764 0.2033299999999998
612.06 0.17332999999999998
612.359 0.18999999999999995
612.656 0.19333
612.953 0.16999999999999993
613.249 0.2033299999999998
613.546 0.17999999999999972
613.845 0.17332999999999998
614.141 0.18332999999999977
614.438 0.16999999999999993
614.734 0.2033299999999998
615.031 0.18332999999999977
615.33 0.1866699999999999
615.626 0.15332999999999997
615.923 0.16999999999999993
616.219 0.21333000000000002
616.516 0.1599999999999997
616.815 0.17666999999999966
617.111 0.18999999999999995
617.408 0.1499999999999999
617.704 0.17666999999999966
618.001 0.17666999999999966
618.297 0.18332999999999977
618.596 0.17332999999999998
618.892 0.19999999999999973
619.189 0.19666999999999968
619.485 0.1499999999999999
619.782 0.17999999999999972
620.078 0.1866699999999999
620.374 0.13999999999999968
620.673 0.2066699999999999
620.969 0.16666999999999987
621.266 0.19666999999999968
621.562 0.17999999999999972
621.858 0.21333000000000002
622.155 0.16999999999999993
622.451 0.18332999999999977
622.75 0.19333
623.046 0.17666999999999966
623.342 0.18332999999999977
623.639 0.17332999999999998
623.935 0.17999999999999972
624.231 0.1599999999999997
624.528 0.19333
624.824 0.17999999999999972
625.12 0.16332999999999975
625.418 0.16999999999999993
625.715 0.19333
626.011 0.1866699999999999
626.307 0.1866699999999999
626.603 0.13332999999999995
626.9 0.14666999999999986
627.196 0.17666999999999966
627.492 0.15332999999999997
627.788 0.1566700000000001
628.084 0.16332999999999975
628.381 0.1866699999999999
628.677 0.1599999999999997
628.975 0.1866699999999999
629.271 0.1499999999999999
629.567 0.18999999999999995
629.863 0.14666999999999986
630.159 0.16332999999999975
630.456 0.17999999999999972
630.752 0.19333
631.048 0.2066699999999999
631.344 0.1866699999999999
631.64 0.14666999999999986
631.936 0.17332999999999998
632.232 0.17999999999999972
632.528 0.1866699999999999
632.824 0.1866699999999999
633.12 0.15332999999999997
633.416 0.16666999999999987
633.712 0.18999999999999995
634.008 0.1599999999999997
634.304 0.17332999999999998
634.6 0.16666999999999987
634.896 0.18999999999999995
635.192 0.19333
635.488 0.16999999999999993
635.784 0.16999999999999993
636.08 0.16999999999999993
636.376 0.16666999999999987
636.672 0.15332999999999997
636.967 0.19333
637.263 0.1599999999999997
637.559 0.15332999999999997
637.855 0.1866699999999999
638.151 0.16999999999999993
638.447 0.19666999999999968
638.743 0.1866699999999999
639.038 0.18999999999999995
639.334 0.18332999999999977
639.63 0.17999999999999972
639.926 0.19333
640.222 0.18332999999999977
640.517 0.20999999999999996
640.813 0.16332999999999975
641.109 0.17999999999999972
641.405 0.15332999999999997
641.7 0.18332999999999977
641.996 0.2066699999999999
642.292 0.16332999999999975
642.588 0.1866699999999999
642.881 0.18332999999999977
643.177 0.17999999999999972
643.473 0.19333
643.768 0.18332999999999977
644.064 0.18999999999999995
644.36 0.17999999999999972
644.655 0.15332999999999997
644.951 0.1599999999999997
645.247 0.18999999999999995
645.542 0.19666999999999968
645.838 0.19999999999999973
646.133 0.16332999999999975
646.427 0.17332999999999998
646.723 0.17332999999999998
647.018 0.16332999999999975
647.314 0.17999999999999972
647.609 0.17332999999999998
647.905 0.17999999999999972
648.2 0.18999999999999995
648.496 0.16999999999999993
648.791 0.18332999999999977
649.085 0.17666999999999966
649.38 0.17666999999999966
649.676 0.1866699999999999
649.971 0.15332999999999997
650.267 0.16999999999999993
650.562 0.18999999999999995
650.858 0.18999999999999995
651.151 0.1499999999999999
651.446 0.1866699999999999
651.742 0.1566700000000001
652.037 0.1599999999999997
652.333 0.1599999999999997
652.628 0.11667000000000005
652.923 0.19999999999999973
653.217 0.18332999999999977
653.512 0.16332999999999975
653.807 0.19999999999999973
654.103 0.15332999999999997
654.398 0.19333
654.693 0.16332999999999975
654.987 0.16666999999999987
655.282 0.17999999999999972
655.577 0.17999999999999972
655.873 0.1499999999999999
656.168 0.17332999999999998
656.461 0.11999999999999966
656.756 0.14666999999999986
657.052 0.16666999999999987
657.347 0.1299999999999999
657.642 0.16999999999999993
657.935 0.14666999999999986
658.231 0.1566700000000001
658.526 0.1599999999999997
658.821 0.16999999999999993
659.116 0.1566700000000001
659.409 0.15332999999999997
659.704 0.16666999999999987
660.0 0.13667000000000007
660.295 0.16666999999999987
660.588 0.15332999999999997
660.883 0.18332999999999977
661.178 0.13999999999999968
661.473 0.16332999999999975
661.766 0.16332999999999975
662.061 0.18332999999999977
662.356 0.1566700000000001
662.651 0.1499999999999999
662.944 0.15332999999999997
663.239 0.13667000000000007
663.534 0.1599999999999997
663.83 0.14666999999999986
664.122 0.16332999999999975
664.417 0.1599999999999997
664.713 0.13332999999999995
665.008 0.1499999999999999
665.3 0.16666999999999987
665.595 0.16666999999999987
665.89 0.13667000000000007
666.183 0.1566700000000001
666.478 0.1599999999999997
666.773 0.1566700000000001
667.068 0.13999999999999968
667.361 0.15332999999999997
667.656 0.14332999999999974
667.951 0.12332999999999972
668.244 0.14666999999999986
668.539 0.1566700000000001
668.833 0.1499999999999999
669.126 0.13999999999999968
669.421 0.16666999999999987
669.716 0.12666999999999984
670.009 0.14666999999999986
670.303 0.11332999999999993
670.598 0.14332999999999974
670.891 0.17332999999999998
671.186 0.15332999999999997
671.481 0.1499999999999999
671.773 0.15332999999999997
672.068 0.1866699999999999
672.363 0.1499999999999999
672.656 0.1566700000000001
672.95 0.1499999999999999
673.245 0.1499999999999999
673.538 0.1499999999999999
673.832 0.14666999999999986
674.127 0.14666999999999986
674.42 0.13332999999999995
674.714 0.12332999999999972
