# Created: 2019-11-28 11:43:39.714738
# rshift intensity
55.3072 0.13175841567496277
55.6331 0.09841841567496284
55.9568 0.10675841567496286
56.2826 0.09841841567496284
56.6085 0.10841841567496263
56.9343 0.11841841567496286
57.2601 0.12175841567496254
57.5859 0.13675841567496266
57.9117 0.12841841567496265
58.2374 0.11675841567496265
58.5632 0.1200884156749627
58.8889 0.10841841567496263
59.2147 0.11341841567496252
59.5382 0.14008841567496272
59.864 0.11508841567496281
60.1897 0.08841841567496261
60.5154 0.0900884156749629
60.841 0.12175841567496254
61.1667 0.08008841567496267
61.4924 0.13008841567496293
61.818 0.13508841567496283
62.1437 0.12175841567496254
62.4671 0.09675841567496263
62.7927 0.11175841567496275
63.1183 0.1450884156749626
63.4439 0.08841841567496261
63.7695 0.12175841567496254
64.0951 0.12341841567496276
64.4206 0.11008841567496291
64.744 0.11175841567496275
65.0696 0.0900884156749629
65.3951 0.14008841567496272
65.7206 0.10008841567496268
66.0461 0.1250884156749626
66.3716 0.11675841567496265
66.6971 0.10841841567496263
67.0204 0.07175841567496272
67.3459 0.10341841567496274
67.6713 0.1250884156749626
67.9967 0.1200884156749627
68.3222 0.0817584156749625
68.6476 0.13008841567496293
68.9708 0.10175841567496252
69.2962 0.11675841567496265
69.6216 0.11341841567496252
69.9469 0.12175841567496254
70.2723 0.09508841567496279
70.5976 0.09841841567496284
70.9208 0.09841841567496284
71.2461 0.11675841567496265
71.5715 0.11675841567496265
71.8968 0.10675841567496286
72.222 0.11675841567496265
72.5452 0.10508841567496258
72.8704 0.08675841567496284
73.1957 0.10841841567496263
73.5209 0.10341841567496274
73.8462 0.10175841567496252
74.1692 0.07175841567496272
74.4944 0.11008841567496291
74.8196 0.1250884156749626
75.1448 0.10341841567496274
75.4678 0.08508841567496256
75.793 0.11175841567496275
76.1182 0.12175841567496254
76.4433 0.09841841567496284
76.7684 0.09841841567496284
77.0914 0.09675841567496263
77.4165 0.10841841567496263
77.7416 0.10175841567496252
78.0667 0.11175841567496275
78.3896 0.10508841567496258
78.7147 0.10675841567496286
79.0397 0.10508841567496258
79.3648 0.12341841567496276
79.6876 0.11675841567496265
80.0127 0.11841841567496286
80.3377 0.1450884156749626
80.6627 0.1500884156749625
80.9855 0.14008841567496272
81.3105 0.14341841567496277
81.6354 0.11008841567496291
81.9604 0.09675841567496263
82.2832 0.1500884156749625
82.6081 0.09508841567496279
82.933 0.11175841567496275
83.2558 0.1250884156749626
83.5807 0.11341841567496252
83.9055 0.13341841567496254
84.2304 0.11841841567496286
84.5531 0.09341841567496251
84.878 0.12175841567496254
85.2028 0.13008841567496293
85.5255 0.11175841567496275
85.8503 0.08008841567496267
86.1751 0.10175841567496252
86.4978 0.09341841567496251
86.8225 0.07341841567496293
87.1473 0.0634184156749627
87.4721 0.0900884156749629
87.7947 0.09508841567496279
88.1194 0.06175841567496293
88.4441 0.0817584156749625
88.7667 0.09175841567496273
89.0914 0.08508841567496256
89.4161 0.07841841567496283
89.7386 0.0684184156749626
90.0633 0.09175841567496273
90.3879 0.07841841567496283
90.7104 0.09175841567496273
91.0351 0.09341841567496251
91.3597 0.0817584156749625
91.6822 0.07008841567496288
92.0068 0.07008841567496288
92.3314 0.07508841567496277
92.6538 0.07341841567496293
92.9784 0.0684184156749626
93.3029 0.08841841567496261
93.6253 0.07008841567496288
93.9499 0.03175841567496268
94.2722 0.08841841567496261
94.5967 0.10341841567496274
94.9212 0.06508841567496254
95.2436 0.0900884156749629
95.5681 0.06508841567496254
95.8925 0.046758415674962805
96.2149 0.07008841567496288
96.5393 0.07175841567496272
96.8616 0.07008841567496288
97.186 0.07175841567496272
97.5104 0.05841841567496281
97.8327 0.0900884156749629
98.1571 0.07008841567496288
98.4814 0.05675841567496259
98.8037 0.0634184156749627
99.128 0.06175841567496293
99.4502 0.06175841567496293
99.7746 0.046758415674962805
100.099 0.06008841567496265
100.421 0.06675841567496282
100.745 0.10175841567496252
101.067 0.09175841567496273
101.392 0.07841841567496283
101.714 0.04508841567496252
102.038 0.08675841567496284
102.362 0.07675841567496261
102.684 0.0900884156749629
103.009 0.0517584156749627
103.331 0.07841841567496283
103.655 0.06008841567496265
103.977 0.06008841567496265
104.301 0.08841841567496261
104.625 0.07175841567496272
104.947 0.07175841567496272
105.271 0.07675841567496261
105.593 0.04841841567496258
105.918 0.0817584156749625
106.24 0.0517584156749627
106.564 0.055088415674962754
106.886 0.06675841567496282
107.21 0.06175841567496293
107.534 0.07675841567496261
107.856 0.05841841567496281
108.18 0.08008841567496267
108.502 0.0517584156749627
108.826 0.07341841567496293
109.147 0.02841841567496256
109.471 0.06508841567496254
109.793 0.09841841567496284
110.117 0.07175841567496272
110.439 0.06008841567496265
110.763 0.07008841567496288
111.085 0.07841841567496283
111.409 0.07008841567496288
111.731 0.06008841567496265
112.054 0.06008841567496265
112.376 0.06175841567496293
112.7 0.0817584156749625
113.022 0.055088415674962754
113.346 0.07841841567496283
113.667 0.07841841567496283
113.991 0.0634184156749627
114.313 0.08341841567496272
114.637 0.05008841567496286
114.958 0.04841841567496258
115.282 0.055088415674962754
115.604 0.08008841567496267
115.928 0.046758415674962805
116.249 0.05008841567496286
116.573 0.06675841567496282
116.895 0.0684184156749626
117.216 0.07175841567496272
117.54 0.10508841567496258
117.862 0.05841841567496281
118.185 0.06675841567496282
118.507 0.04841841567496258
118.83 0.05008841567496286
119.152 0.06508841567496254
119.476 0.08508841567496256
119.797 0.08008841567496267
120.121 0.04175841567496291
120.442 0.08341841567496272
120.764 0.07675841567496261
121.087 0.06175841567496293
121.409 0.04008841567496263
121.732 0.06175841567496293
122.054 0.07175841567496272
122.377 0.06508841567496254
122.699 0.06175841567496293
123.02 0.0684184156749626
123.344 0.07175841567496272
123.665 0.05675841567496259
123.988 0.043418415674962685
124.31 0.05841841567496281
124.631 0.06675841567496282
124.955 0.06675841567496282
125.276 0.0817584156749625
125.599 0.06175841567496293
125.921 0.055088415674962754
126.242 0.07841841567496283
126.565 0.07341841567496293
126.887 0.05675841567496259
127.21 0.055088415674962754
127.531 0.06675841567496282
127.852 0.0634184156749627
128.176 0.06008841567496265
128.497 0.07341841567496293
128.82 0.0684184156749626
129.141 0.035088415674962736
129.463 0.0900884156749629
129.786 0.04508841567496252
130.107 0.07341841567496293
130.428 0.05841841567496281
130.751 0.05675841567496259
131.073 0.046758415674962805
131.394 0.06175841567496293
131.717 0.05008841567496286
132.038 0.06175841567496293
132.361 0.0684184156749626
132.682 0.04508841567496252
133.003 0.046758415674962805
133.326 0.0684184156749626
133.647 0.0817584156749625
133.969 0.053418415674962916
134.292 0.06175841567496293
134.613 0.08008841567496267
134.934 0.0634184156749627
135.257 0.05841841567496281
135.578 0.07841841567496283
135.899 0.0634184156749627
136.22 0.07841841567496283
136.543 0.07675841567496261
136.864 0.06175841567496293
137.184 0.07341841567496293
137.507 0.035088415674962736
137.828 0.05675841567496259
138.149 0.0634184156749627
138.472 0.04841841567496258
138.793 0.09175841567496273
139.114 0.07508841567496277
139.437 0.04175841567496291
139.758 0.07341841567496293
140.078 0.06008841567496265
140.399 0.06008841567496265
140.722 0.0517584156749627
141.043 0.05841841567496281
141.364 0.026758415674962788
141.687 0.04508841567496252
142.007 0.07675841567496261
142.328 0.03841841567496279
142.649 0.053418415674962916
142.972 0.0517584156749627
143.292 0.04008841567496263
143.613 0.0684184156749626
143.934 0.04175841567496291
144.256 0.05675841567496259
144.577 0.0817584156749625
144.898 0.055088415674962754
145.218 0.046758415674962805
145.541 0.05675841567496259
145.862 0.04508841567496252
146.182 0.02841841567496256
146.503 0.06508841567496254
146.826 0.0334184156749629
147.146 0.06175841567496293
147.467 0.0517584156749627
147.787 0.08675841567496284
148.11 0.05008841567496286
148.43 0.06008841567496265
148.751 0.0684184156749626
149.071 0.07175841567496272
149.392 0.055088415674962754
149.715 0.03175841567496268
150.035 0.02841841567496256
150.355 0.055088415674962754
150.676 0.026758415674962788
150.996 0.06508841567496254
151.319 0.030088415674962843
151.639 0.06008841567496265
151.96 0.04008841567496263
152.28 0.06675841567496282
152.6 0.03175841567496268
152.923 0.04175841567496291
153.243 0.055088415674962754
153.564 0.0634184156749627
153.884 0.030088415674962843
154.204 0.03841841567496279
154.527 0.046758415674962805
154.847 0.055088415674962754
155.167 0.08508841567496256
155.488 0.023418415674962667
155.808 0.06175841567496293
156.128 0.055088415674962754
156.45 0.026758415674962788
156.771 0.0634184156749627
157.091 0.04008841567496263
157.411 0.04008841567496263
157.731 0.06508841567496254
158.052 0.04008841567496263
158.372 0.055088415674962754
158.694 0.0334184156749629
159.014 0.05675841567496259
159.334 0.00675841567496277
159.654 0.04175841567496291
159.975 0.03175841567496268
160.295 0.030088415674962843
160.615 0.06675841567496282
160.937 0.043418415674962685
161.257 0.0684184156749626
161.577 0.021758415674962894
161.897 0.03841841567496279
162.217 0.04175841567496291
162.537 0.06175841567496293
162.857 0.018418415674962774
163.177 0.035088415674962736
163.499 0.04508841567496252
163.819 0.05008841567496286
164.139 0.030088415674962843
164.459 0.05008841567496286
164.779 0.07841841567496283
165.099 0.0634184156749627
165.419 0.035088415674962736
165.739 0.025088415674962505
166.059 0.021758415674962894
166.379 0.04008841567496263
166.699 0.036758415674962575
167.021 0.07175841567496272
167.341 0.05841841567496281
167.661 0.0334184156749629
167.98 0.046758415674962805
168.3 0.05841841567496281
168.62 0.07175841567496272
168.94 0.036758415674962575
169.26 0.035088415674962736
169.58 0.036758415674962575
169.899 0.04841841567496258
170.219 0.04508841567496252
170.539 0.04841841567496258
170.859 0.04008841567496263
171.178 0.04841841567496258
171.498 0.02841841567496256
171.818 0.05008841567496286
172.137 0.06675841567496282
172.459 0.036758415674962575
172.779 0.0517584156749627
173.099 0.06008841567496265
173.418 0.030088415674962843
173.738 0.08008841567496267
174.058 0.02841841567496256
174.377 0.036758415674962575
174.697 0.05675841567496259
175.016 0.05008841567496286
175.336 0.046758415674962805
175.656 0.043418415674962685
175.975 0.04508841567496252
176.295 0.04175841567496291
176.614 0.036758415674962575
176.934 0.016758415674962557
177.253 0.04508841567496252
177.573 0.046758415674962805
177.892 0.023418415674962667
178.212 0.04841841567496258
178.531 0.03175841567496268
178.851 0.030088415674962843
179.17 0.05841841567496281
179.49 0.046758415674962805
179.809 0.04175841567496291
180.129 0.03841841567496279
180.448 0.05008841567496286
180.767 0.0634184156749627
181.087 0.05008841567496286
181.406 0.025088415674962505
181.726 0.05675841567496259
182.045 0.04841841567496258
182.362 0.055088415674962754
182.682 0.06508841567496254
183.001 0.06175841567496293
183.32 0.0684184156749626
183.64 0.06675841567496282
183.959 0.05008841567496286
184.278 0.026758415674962788
184.597 0.07341841567496293
184.917 0.04841841567496258
185.236 0.036758415674962575
185.555 0.06175841567496293
185.874 0.05841841567496281
186.194 0.046758415674962805
186.513 0.06675841567496282
186.832 0.055088415674962754
187.151 0.04175841567496291
187.47 0.0517584156749627
187.787 0.035088415674962736
188.107 0.07175841567496272
188.426 0.04175841567496291
188.745 0.04508841567496252
189.064 0.030088415674962843
189.383 0.01341841567496288
189.702 0.046758415674962805
190.021 0.046758415674962805
190.34 0.04841841567496258
190.66 0.05008841567496286
190.976 0.06508841567496254
191.296 0.04175841567496291
191.615 0.055088415674962754
191.934 0.023418415674962667
192.253 0.04008841567496263
192.572 0.04175841567496291
192.891 0.03841841567496279
193.21 0.043418415674962685
193.529 0.035088415674962736
193.845 0.04008841567496263
194.164 0.06008841567496265
194.483 0.03841841567496279
194.802 0.05675841567496259
195.121 0.04841841567496258
195.44 0.05675841567496259
195.759 0.03841841567496279
196.076 0.0517584156749627
196.395 0.055088415674962754
196.713 0.053418415674962916
197.032 0.046758415674962805
197.351 0.036758415674962575
197.67 0.020088415674962612
197.987 0.0517584156749627
198.305 0.05841841567496281
198.624 0.0684184156749626
198.943 0.036758415674962575
199.262 0.053418415674962916
199.581 0.0517584156749627
199.897 0.04175841567496291
200.216 0.04008841567496263
200.535 0.04841841567496258
200.853 0.03175841567496268
201.172 0.07008841567496288
201.491 0.0684184156749626
201.807 0.03175841567496268
202.126 0.06175841567496293
202.445 0.05008841567496286
202.763 0.0517584156749627
203.082 0.04008841567496263
203.399 0.03841841567496279
203.717 0.055088415674962754
204.036 0.046758415674962805
204.354 0.0517584156749627
204.673 0.03841841567496279
204.989 0.035088415674962736
205.308 0.0517584156749627
205.627 0.06675841567496282
205.945 0.03841841567496279
206.262 0.06008841567496265
206.58 0.043418415674962685
206.899 0.06508841567496254
207.217 0.07008841567496288
207.533 0.030088415674962843
207.852 0.05675841567496259
208.17 0.05841841567496281
208.489 0.05675841567496259
208.805 0.055088415674962754
209.124 0.07175841567496272
209.442 0.053418415674962916
209.761 0.07008841567496288
210.077 0.046758415674962805
210.395 0.0334184156749629
210.714 0.053418415674962916
211.032 0.06008841567496265
211.348 0.05675841567496259
211.667 0.023418415674962667
211.985 0.07175841567496272
212.303 0.046758415674962805
212.619 0.05841841567496281
212.938 0.05008841567496286
213.256 0.04508841567496252
213.572 0.021758415674962894
213.89 0.05008841567496286
214.209 0.07008841567496288
214.527 0.023418415674962667
214.843 0.04175841567496291
215.161 0.0684184156749626
215.48 0.0634184156749627
215.796 0.07175841567496272
216.114 0.05841841567496281
216.432 0.04508841567496252
216.748 0.04841841567496258
217.066 0.053418415674962916
217.384 0.08008841567496267
217.703 0.07841841567496283
218.019 0.030088415674962843
218.337 0.06675841567496282
218.655 0.07675841567496261
218.971 0.07341841567496293
219.289 0.08008841567496267
219.607 0.0517584156749627
219.923 0.06175841567496293
220.241 0.07508841567496277
220.559 0.055088415674962754
220.875 0.036758415674962575
221.193 0.06175841567496293
221.511 0.043418415674962685
221.827 0.06175841567496293
222.145 0.043418415674962685
222.461 0.08341841567496272
222.779 0.05675841567496259
223.097 0.07508841567496277
223.413 0.08675841567496284
223.731 0.06175841567496293
224.048 0.06675841567496282
224.364 0.06175841567496293
224.682 0.09341841567496251
225.0 0.053418415674962916
225.316 0.04841841567496258
225.634 0.0517584156749627
225.949 0.06508841567496254
226.267 0.06175841567496293
226.585 0.07175841567496272
226.901 0.043418415674962685
227.219 0.08008841567496267
227.534 0.08508841567496256
227.852 0.0684184156749626
228.17 0.07508841567496277
228.486 0.04841841567496258
228.803 0.05008841567496286
229.119 0.04841841567496258
229.437 0.0517584156749627
229.755 0.06008841567496265
230.07 0.07508841567496277
230.388 0.06508841567496254
230.703 0.07341841567496293
231.021 0.05008841567496286
231.337 0.06675841567496282
231.654 0.08508841567496256
231.972 0.06675841567496282
232.288 0.04008841567496263
232.605 0.043418415674962685
232.921 0.0684184156749626
233.238 0.055088415674962754
233.554 0.07175841567496272
233.871 0.035088415674962736
234.189 0.06008841567496265
234.504 0.04508841567496252
234.822 0.0817584156749625
235.137 0.06008841567496265
235.455 0.043418415674962685
235.77 0.026758415674962788
236.088 0.06175841567496293
236.403 0.035088415674962736
236.721 0.06175841567496293
237.036 0.06508841567496254
237.354 0.05841841567496281
237.669 0.05841841567496281
237.986 0.053418415674962916
238.302 0.0684184156749626
238.619 0.07008841567496288
238.935 0.0684184156749626
239.252 0.043418415674962685
239.567 0.08508841567496256
239.885 0.0634184156749627
240.202 0.04841841567496258
240.517 0.06008841567496265
240.833 0.06175841567496293
241.15 0.043418415674962685
241.465 0.06508841567496254
241.782 0.05008841567496286
242.098 0.07508841567496277
242.415 0.053418415674962916
242.73 0.04841841567496258
243.047 0.0517584156749627
243.363 0.06175841567496293
243.68 0.02841841567496256
243.995 0.0517584156749627
244.312 0.0517584156749627
244.627 0.030088415674962843
244.945 0.053418415674962916
245.26 0.04841841567496258
245.577 0.01341841567496288
245.892 0.07008841567496288
246.209 0.035088415674962736
246.524 0.06008841567496265
246.839 0.04008841567496263
247.156 0.055088415674962754
247.471 0.06675841567496282
247.788 0.04175841567496291
248.103 0.046758415674962805
248.421 0.07175841567496272
248.735 0.0517584156749627
249.053 0.04508841567496252
249.368 0.055088415674962754
249.682 0.04008841567496263
249.999 0.05675841567496259
250.314 0.046758415674962805
250.631 0.035088415674962736
250.946 0.03175841567496268
251.261 0.04175841567496291
251.578 0.05675841567496259
251.893 0.04508841567496252
252.21 0.035088415674962736
252.525 0.07175841567496272
252.842 0.06508841567496254
253.157 0.036758415674962575
253.472 0.03841841567496279
253.788 0.05841841567496281
254.103 0.0634184156749627
254.418 0.043418415674962685
254.735 0.10175841567496252
255.05 0.016758415674962557
255.367 0.03841841567496279
255.681 0.05008841567496286
255.996 0.04175841567496291
256.313 0.05008841567496286
256.628 0.04508841567496252
256.942 0.04841841567496258
257.259 0.04508841567496252
257.574 0.043418415674962685
257.89 0.0334184156749629
258.205 0.02841841567496256
258.52 0.035088415674962736
258.837 0.05008841567496286
259.151 0.06508841567496254
259.466 0.043418415674962685
259.782 0.04508841567496252
260.097 0.04841841567496258
260.412 0.0517584156749627
260.728 0.04175841567496291
261.043 0.07841841567496283
261.357 0.0634184156749627
261.674 0.04175841567496291
261.989 0.0684184156749626
262.303 0.0334184156749629
262.62 0.055088415674962754
262.934 0.05675841567496259
263.249 0.053418415674962916
263.565 0.06175841567496293
263.88 0.07508841567496277
264.194 0.05619985140905498
264.511 0.05540282331489871
264.825 0.055577711750838976
265.14 0.05622591388596093
265.454 0.056295112706936046
265.771 0.03841841567496279
266.085 0.04841841567496258
266.399 0.035088415674962736
266.716 0.05008841567496286
267.03 0.0634184156749627
267.344 0.06508841567496254
267.659 0.011758415674962663
267.975 0.0817584156749625
268.29 0.06175841567496293
268.604 0.0817584156749625
268.92 0.09175841567496273
269.235 0.046758415674962805
269.549 0.08008841567496267
269.863 0.08508841567496256
270.179 0.09175841567496273
270.494 0.08508841567496256
270.808 0.06675841567496282
271.122 0.08008841567496267
271.438 0.043418415674962685
271.753 0.06008841567496265
272.067 0.04508841567496252
272.381 0.05675841567496259
272.697 0.0817584156749625
273.011 0.03175841567496268
273.326 0.04841841567496258
273.64 0.06175841567496293
273.956 0.06008841567496265
274.27 0.06175841567496293
274.584 0.06508841567496254
274.898 0.05675841567496259
275.212 0.06508841567496254
275.528 0.05008841567496286
275.843 0.07175841567496272
276.157 0.06508841567496254
276.471 0.06175841567496293
276.787 0.0684184156749626
277.101 0.04841841567496258
277.415 0.08341841567496272
277.729 0.07175841567496272
278.043 0.06175841567496293
278.359 0.0684184156749626
278.673 0.055088415674962754
278.987 0.053418415674962916
279.301 0.07008841567496288
279.615 0.06675841567496282
279.929 0.046758415674962805
280.245 0.06675841567496282
280.558 0.035088415674962736
280.872 0.08841841567496261
281.186 0.055088415674962754
281.5 0.0634184156749627
281.814 0.046758415674962805
282.13 0.06675841567496282
282.444 0.0634184156749627
282.758 0.07175841567496272
283.071 0.07841841567496283
283.385 0.06008841567496265
283.699 0.055088415674962754
284.015 0.0684184156749626
284.329 0.07175841567496272
284.642 0.07508841567496277
284.956 0.055088415674962754
285.27 0.04841841567496258
285.584 0.06508841567496254
285.897 0.046758415674962805
286.213 0.07841841567496283
286.527 0.07675841567496261
286.841 0.05841841567496281
287.154 0.08008841567496267
287.468 0.06675841567496282
287.782 0.0517584156749627
288.095 0.04841841567496258
288.409 0.07175841567496272
288.722 0.053418415674962916
289.038 0.0684184156749626
289.352 0.07841841567496283
289.665 0.05841841567496281
289.979 0.06508841567496254
290.293 0.0684184156749626
290.606 0.08341841567496272
290.92 0.07508841567496277
291.233 0.07341841567496293
291.547 0.05675841567496259
291.86 0.11675841567496265
292.176 0.07725086980975676
292.489 0.07592770635625828
292.803 0.07619651509651543
293.116 0.07695501753093864
293.43 0.07682001477646
293.743 0.07841841567496283
294.057 0.055088415674962754
294.37 0.06175841567496293
294.683 0.05008841567496286
294.997 0.0517584156749627
295.31 0.06508841567496254
295.624 0.07341841567496293
295.937 0.04841841567496258
296.25 0.08341841567496272
296.564 0.0517584156749627
296.877 0.04508841567496252
297.19 0.07175841567496272
297.504 0.07675841567496261
297.819 0.08508841567496256
298.133 0.07008841567496288
298.446 0.0817584156749625
298.759 0.08841841567496261
299.072 0.06175841567496293
299.386 0.08508841567496256
299.699 0.053418415674962916
300.012 0.0684184156749626
300.325 0.0817584156749625
300.639 0.06508841567496254
300.952 0.07508841567496277
301.265 0.07841841567496283
301.578 0.0517584156749627
301.891 0.05008841567496286
302.205 0.06008841567496265
302.518 0.09175841567496273
302.831 0.08675841567496284
303.144 0.06675841567496282
303.457 0.05675841567496259
303.77 0.07175841567496272
304.083 0.043418415674962685
304.396 0.08508841567496256
304.709 0.08841841567496261
305.023 0.0334184156749629
305.336 0.09175841567496273
305.649 0.10008841567496268
305.962 0.0817584156749625
306.273 0.07675841567496261
306.586 0.06675841567496282
306.899 0.07675841567496261
307.212 0.08841841567496261
307.525 0.09175841567496273
307.838 0.04841841567496258
308.151 0.09341841567496251
308.464 0.08675841567496284
308.777 0.06008841567496265
309.089 0.07675841567496261
309.402 0.0817584156749625
309.715 0.06675841567496282
310.028 0.07341841567496293
310.341 0.07341841567496293
310.654 0.05675841567496259
310.967 0.08508841567496256
311.28 0.08675841567496284
311.593 0.11008841567496291
311.903 0.0517584156749627
312.216 0.04508841567496252
312.529 0.08675841567496284
312.842 0.0634184156749627
313.155 0.0817584156749625
313.467 0.08508841567496256
313.78 0.10841841567496263
314.093 0.07008841567496288
314.406 0.10175841567496252
314.718 0.09675841567496263
315.029 0.10508841567496258
315.342 0.07008841567496288
315.654 0.07008841567496288
315.967 0.06175841567496293
316.28 0.07341841567496293
316.593 0.0900884156749629
316.905 0.10341841567496274
317.218 0.055088415674962754
317.531 0.09841841567496284
317.841 0.09841841567496284
318.154 0.0900884156749629
318.466 0.07508841567496277
318.779 0.10841841567496263
319.092 0.11008841567496291
319.404 0.10841841567496263
319.717 0.07675841567496261
320.027 0.06675841567496282
320.34 0.10341841567496274
320.652 0.09341841567496251
320.965 0.0684184156749626
321.277 0.09675841567496263
321.59 0.09341841567496251
321.9 0.11341841567496252
322.213 0.13675841567496266
322.525 0.10675841567496286
322.838 0.07841841567496283
323.15 0.10008841567496268
323.463 0.07175841567496272
323.773 0.10841841567496263
324.085 0.11008841567496291
324.398 0.07341841567496293
324.71 0.08841841567496261
325.023 0.11175841567496275
325.333 0.07675841567496261
325.645 0.10841841567496263
325.958 0.10508841567496258
326.27 0.10008841567496268
326.582 0.10008841567496268
326.893 0.10508841567496258
327.205 0.09175841567496273
327.517 0.10341841567496274
327.83 0.09341841567496251
328.142 0.13341841567496254
328.452 0.10841841567496263
328.764 0.09841841567496284
329.077 0.13008841567496293
329.389 0.10841841567496263
329.701 0.10675841567496286
330.011 0.1250884156749626
330.323 0.10008841567496268
330.636 0.1250884156749626
330.948 0.12175841567496254
331.258 0.12675841567496288
331.57 0.1250884156749626
331.882 0.10175841567496252
332.194 0.10675841567496286
332.504 0.08508841567496256
332.817 0.11508841567496281
333.129 0.11675841567496265
333.441 0.1250884156749626
333.751 0.08008841567496267
334.063 0.11008841567496291
334.375 0.11341841567496252
334.685 0.10508841567496258
334.997 0.15508841567496284
335.309 0.13175841567496277
335.621 0.13508841567496283
335.931 0.1500884156749625
336.243 0.11175841567496275
336.555 0.13175841567496277
336.867 0.11841841567496286
337.177 0.11341841567496252
337.489 0.1517584156749628
337.801 0.12175841567496254
338.111 0.10675841567496286
338.423 0.12341841567496276
338.735 0.14341841567496277
339.045 0.1500884156749625
339.356 0.1450884156749626
339.668 0.13675841567496266
339.978 0.11841841567496286
340.29 0.12175841567496254
340.602 0.16175841567496257
340.914 0.1250884156749626
341.224 0.14175841567496256
341.535 0.14008841567496272
341.847 0.13341841567496254
342.157 0.1584184156749629
342.469 0.13675841567496266
342.781 0.11508841567496281
343.09 0.13341841567496254
343.402 0.14008841567496272
343.714 0.14175841567496256
344.023 0.17341841567496258
344.335 0.13175841567496277
344.645 0.1500884156749625
344.957 0.15341841567496256
345.268 0.14341841567496277
345.578 0.16008841567496274
345.89 0.13175841567496277
346.201 0.13008841567496293
346.511 0.15341841567496256
346.823 0.17008841567496252
347.134 0.13508841567496283
347.444 0.15508841567496284
347.755 0.14175841567496256
348.065 0.13341841567496254
348.376 0.1250884156749626
348.688 0.16008841567496274
348.998 0.17508841567496286
349.309 0.15508841567496284
349.619 0.14341841567496277
349.93 0.15675841567496268
350.242 0.16175841567496257
350.551 0.13841841567496288
350.863 0.17008841567496252
351.172 0.18508841567496265
351.484 0.1817584156749626
351.795 0.16508841567496263
352.105 0.13175841567496277
352.416 0.1634184156749628
352.725 0.15341841567496256
353.037 0.15341841567496256
353.346 0.1717584156749628
353.658 0.1717584156749628
353.969 0.1817584156749626
354.278 0.19008841567496254
354.59 0.1467584156749629
354.899 0.18008841567496275
355.211 0.17841841567496292
355.52 0.1834184156749628
355.831 0.18508841567496265
356.142 0.16175841567496257
356.452 0.17841841567496292
356.763 0.1767584156749627
357.072 0.1884184156749627
357.384 0.1500884156749625
357.693 0.15675841567496268
358.004 0.1717584156749628
358.313 0.16508841567496263
358.625 0.1667584156749629
358.934 0.16841841567496268
359.245 0.1634184156749628
359.554 0.15341841567496256
359.865 0.1584184156749629
360.174 0.15675841567496268
360.486 0.15675841567496268
360.795 0.16008841567496274
361.106 0.1584184156749629
361.415 0.16508841567496263
361.726 0.1834184156749628
362.035 0.1517584156749628
362.346 0.18008841567496275
362.655 0.13008841567496293
362.967 0.17008841567496252
363.276 0.1767584156749627
363.587 0.13508841567496283
363.896 0.16841841567496268
364.207 0.1500884156749625
364.516 0.13841841567496288
364.827 0.16175841567496257
365.136 0.17008841567496252
365.447 0.15675841567496268
365.756 0.17341841567496258
366.067 0.13008841567496293
366.376 0.14008841567496272
366.687 0.15508841567496284
366.996 0.1450884156749626
367.307 0.1517584156749628
367.615 0.15508841567496284
367.924 0.18675841567496293
368.235 0.1467584156749629
368.544 0.1884184156749627
368.855 0.14175841567496256
369.164 0.1500884156749625
369.475 0.16841841567496268
369.784 0.1467584156749629
370.094 0.1667584156749629
370.403 0.15675841567496268
370.712 0.1584184156749629
371.023 0.16841841567496268
371.332 0.12341841567496276
371.642 0.14841841567496267
371.951 0.12675841567496288
372.262 0.1717584156749628
372.571 0.13508841567496283
372.879 0.16008841567496274
373.19 0.18008841567496275
373.499 0.14008841567496272
373.81 0.14175841567496256
374.118 0.16008841567496274
374.427 0.1500884156749625
374.738 0.13175841567496277
375.046 0.17008841567496252
375.357 0.16175841567496257
375.666 0.1834184156749628
375.974 0.17008841567496252
376.285 0.14175841567496256
376.593 0.1584184156749629
376.902 0.1584184156749629
377.213 0.1517584156749628
377.521 0.10841841567496263
377.832 0.14341841567496277
378.14 0.16508841567496263
378.449 0.17008841567496252
378.759 0.16175841567496257
379.068 0.19175841567496282
379.376 0.16175841567496257
379.687 0.14008841567496272
379.995 0.13175841567496277
380.304 0.11008841567496291
380.614 0.1467584156749629
380.923 0.16175841567496257
381.231 0.17341841567496258
381.542 0.1834184156749628
381.85 0.1500884156749625
382.159 0.14841841567496267
382.469 0.20841841567496272
382.777 0.1717584156749628
383.086 0.1500884156749625
383.396 0.19008841567496254
383.705 0.12175841567496254
384.013 0.18675841567496293
384.323 0.17508841567496286
384.632 0.1584184156749629
384.94 0.16508841567496263
385.25 0.16841841567496268
385.559 0.17008841567496252
385.867 0.1717584156749628
386.175 0.18508841567496265
386.485 0.1834184156749628
386.794 0.18508841567496265
387.102 0.16175841567496257
387.412 0.1667584156749629
387.72 0.18508841567496265
388.029 0.1817584156749626
388.337 0.1884184156749627
388.647 0.1634184156749628
388.955 0.17508841567496286
389.263 0.1717584156749628
389.571 0.19175841567496282
389.882 0.1767584156749627
390.19 0.20841841567496272
390.498 0.1634184156749628
390.808 0.16841841567496268
391.116 0.18675841567496293
391.424 0.19508841567496288
391.732 0.20341841567496283
392.042 0.20341841567496283
392.351 0.21175841567496284
392.659 0.19175841567496282
392.967 0.18008841567496275
393.275 0.16508841567496263
393.585 0.18008841567496275
393.893 0.20341841567496283
394.201 0.1717584156749628
394.509 0.20841841567496272
394.819 0.20508841567496267
395.127 0.19008841567496254
395.435 0.1934184156749626
395.743 0.18008841567496275
396.051 0.23508841567496291
396.361 0.19008841567496254
396.668 0.19675841567496272
396.976 0.17841841567496292
397.284 0.20008841567496277
397.592 0.2200884156749628
397.902 0.22508841567496268
398.21 0.19175841567496282
398.518 0.18508841567496265
398.826 0.2150884156749629
399.133 0.19675841567496272
399.443 0.21175841567496284
399.751 0.2017584156749626
400.059 0.2184184156749625
400.367 0.21008841567496256
400.674 0.23675841567496275
400.982 0.2134184156749626
401.292 0.2150884156749629
401.6 0.21175841567496284
401.908 0.20841841567496272
402.215 0.25341841567496265
402.523 0.1934184156749626
402.831 0.1884184156749627
403.14 0.2200884156749628
403.448 0.21175841567496284
403.756 0.2450884156749627
404.063 0.23508841567496291
404.371 0.2150884156749629
404.679 0.19675841567496272
404.986 0.22508841567496268
405.296 0.21008841567496256
405.604 0.23008841567496258
405.911 0.23508841567496291
406.219 0.19841841567496293
406.526 0.2017584156749626
406.834 0.2067584156749625
407.142 0.2200884156749628
407.449 0.2184184156749625
407.759 0.19508841567496288
408.066 0.23841841567496252
408.374 0.20841841567496272
408.681 0.2184184156749625
408.989 0.21175841567496284
409.296 0.2017584156749626
409.604 0.22175841567496263
409.911 0.2184184156749625
410.219 0.2200884156749628
410.526 0.2134184156749626
410.834 0.20508841567496267
411.143 0.22508841567496268
411.45 0.21008841567496256
411.758 0.21175841567496284
412.065 0.21175841567496284
412.373 0.19508841567496288
412.68 0.24175841567496265
412.987 0.17841841567496292
413.295 0.21175841567496284
413.602 0.22508841567496268
413.909 0.20341841567496283
414.217 0.2017584156749626
414.524 0.1884184156749627
414.831 0.2400884156749628
415.139 0.18508841567496265
415.446 0.22675841567496252
415.753 0.23341841567496263
416.06 0.20341841567496283
416.37 0.25341841567496265
416.677 0.2067584156749625
416.984 0.2017584156749626
417.291 0.2400884156749628
417.599 0.20508841567496267
417.906 0.22675841567496252
418.213 0.20341841567496283
418.52 0.2200884156749628
418.827 0.2134184156749626
419.135 0.20841841567496272
419.442 0.23508841567496291
419.749 0.22675841567496252
420.056 0.20841841567496272
420.363 0.23341841567496263
420.67 0.22675841567496252
420.977 0.23341841567496263
421.284 0.2500884156749626
421.591 0.21175841567496284
421.899 0.21675841567496273
422.206 0.19841841567496293
422.513 0.22675841567496252
422.82 0.24841841567496276
423.127 0.23008841567496258
423.434 0.19508841567496288
423.741 0.2500884156749626
424.048 0.20341841567496283
424.355 0.2150884156749629
424.662 0.1667584156749629
424.967 0.19508841567496288
425.274 0.23008841567496258
425.58 0.2067584156749625
425.887 0.1817584156749626
426.194 0.2150884156749629
426.501 0.23341841567496263
426.808 0.2200884156749628
427.115 0.22508841567496268
427.422 0.23175841567496286
427.729 0.23008841567496258
428.036 0.20841841567496272
428.342 0.19675841567496272
428.649 0.22841841567496274
428.956 0.24341841567496286
429.263 0.2184184156749625
429.57 0.22341841567496284
429.875 0.21675841567496273
430.181 0.2517584156749629
430.488 0.21175841567496284
430.795 0.22175841567496263
431.102 0.2450884156749627
431.408 0.20008841567496277
431.715 0.20508841567496267
432.022 0.23175841567496286
432.329 0.1884184156749627
432.635 0.2067584156749625
432.942 0.21175841567496284
433.247 0.22841841567496274
433.553 0.2184184156749625
433.86 0.25675841567496277
434.167 0.22341841567496284
434.473 0.21008841567496256
434.78 0.20341841567496283
435.087 0.1634184156749628
435.393 0.1934184156749626
435.698 0.2200884156749628
436.004 0.1884184156749627
436.311 0.2134184156749626
436.617 0.20341841567496283
436.924 0.23508841567496291
437.231 0.18008841567496275
437.537 0.20008841567496277
437.842 0.17841841567496292
438.148 0.1834184156749628
438.455 0.18508841567496265
438.761 0.19508841567496288
439.068 0.1884184156749627
439.374 0.1767584156749627
439.681 0.1717584156749628
439.985 0.1884184156749627
440.291 0.23008841567496258
440.598 0.23175841567496286
440.904 0.1667584156749629
441.211 0.22841841567496274
441.515 0.17008841567496252
441.822 0.1634184156749628
442.128 0.19841841567496293
442.434 0.15341841567496256
442.741 0.17508841567496286
443.047 0.1634184156749628
443.351 0.18008841567496275
443.658 0.2017584156749626
443.964 0.1767584156749627
444.27 0.16508841567496263
444.575 0.18675841567496293
444.881 0.19508841567496288
445.187 0.19508841567496288
445.493 0.1584184156749629
445.8 0.20341841567496283
446.104 0.17841841567496292
446.41 0.17008841567496252
446.716 0.1517584156749628
447.023 0.1667584156749629
447.327 0.1667584156749629
447.633 0.16175841567496257
447.939 0.2150884156749629
448.245 0.17841841567496292
448.552 0.19508841567496288
448.856 0.14841841567496267
449.162 0.16841841567496268
449.468 0.1667584156749629
449.774 0.18508841567496265
450.078 0.1634184156749628
450.384 0.13675841567496266
450.69 0.17508841567496286
450.994 0.1817584156749626
451.3 0.19675841567496272
451.607 0.17341841567496258
451.913 0.19303622958710137
452.217 0.1927319110855666
452.523 0.1930882002011945
452.829 0.19305306362780766
453.135 0.19283273273032614
453.439 0.19841841567496293
453.745 0.20341841567496283
454.051 0.1500884156749625
454.355 0.15675841567496268
454.661 0.1667584156749629
454.967 0.1817584156749626
455.27 0.16841841567496268
455.576 0.17841841567496292
455.882 0.1767584156749627
456.188 0.16175841567496257
456.492 0.18008841567496275
456.798 0.17341841567496258
457.104 0.17841841567496292
457.408 0.16008841567496274
457.714 0.1834184156749628
458.019 0.2017584156749626
458.323 0.1834184156749628
458.629 0.16008841567496274
458.935 0.20341841567496283
459.239 0.16508841567496263
459.544 0.17008841567496252
459.85 0.20508841567496267
460.154 0.18008841567496275
460.46 0.18008841567496275
460.766 0.16508841567496263
461.069 0.1817584156749626
461.375 0.16175841567496257
461.681 0.1767584156749627
461.984 0.17841841567496292
462.29 0.1834184156749628
462.594 0.1817584156749626
462.9 0.17841841567496292
463.205 0.2184184156749625
463.509 0.20841841567496272
463.814 0.17508841567496286
464.12 0.16175841567496257
464.424 0.1817584156749626
464.729 0.20341841567496283
465.033 0.1834184156749628
465.339 0.1817584156749626
465.644 0.14841841567496267
465.948 0.17841841567496292
466.253 0.1834184156749628
466.557 0.17508841567496286
466.862 0.2150884156749629
467.168 0.2200884156749628
467.471 0.1584184156749629
467.777 0.19675841567496272
468.08 0.18008841567496275
468.386 0.17841841567496292
468.691 0.18675841567496293
468.995 0.2017584156749626
469.3 0.18008841567496275
469.604 0.1934184156749626
469.909 0.1634184156749628
470.213 0.21008841567496256
470.518 0.18508841567496265
470.824 0.19008841567496254
471.127 0.18675841567496293
471.432 0.16508841567496263
471.736 0.1667584156749629
472.041 0.19675841567496272
472.344 0.17008841567496252
472.65 0.1634184156749628
472.953 0.20508841567496267
473.258 0.15341841567496256
473.562 0.1767584156749627
473.867 0.19841841567496293
474.172 0.18008841567496275
474.476 0.18008841567496275
474.781 0.21008841567496256
475.084 0.19508841567496288
475.39 0.2134184156749626
475.693 0.17841841567496292
475.998 0.17508841567496286
476.301 0.16508841567496263
476.606 0.23175841567496286
476.91 0.23508841567496291
477.215 0.26175841567496266
477.518 0.3700884156749627
477.823 0.44841841567496293
478.126 0.45508841567496267
478.432 0.47175841567496263
478.735 0.4700884156749628
479.04 0.5234184156749626
479.343 0.49341841567496286
479.648 0.48175841567496286
479.951 0.4634184156749626
480.256 0.45008841567496277
480.559 0.49675841567496254
480.864 0.4700884156749628
481.167 0.4884184156749625
481.47 0.46175841567496284
481.776 0.4517584156749626
482.079 0.44841841567496293
482.384 0.4517584156749626
482.687 0.4567584156749625
482.992 0.4950884156749627
483.295 0.43675841567496293
483.6 0.48675841567496275
483.903 0.43008841567496275
484.208 0.43008841567496275
484.51 0.3934184156749628
484.813 0.3384184156749626
485.118 0.2500884156749626
485.421 0.23341841567496263
485.726 0.2200884156749628
486.029 0.1834184156749628
486.334 0.15508841567496284
486.637 0.21008841567496256
486.94 0.1884184156749627
487.245 0.1634184156749628
487.547 0.21175841567496284
487.852 0.21675841567496273
488.155 0.18675841567496293
488.458 0.1884184156749627
488.763 0.2017584156749626
489.066 0.19841841567496293
489.37 0.1884184156749627
489.673 0.1717584156749628
489.976 0.18508841567496265
490.281 0.17841841567496292
490.583 0.20008841567496277
490.888 0.2150884156749629
491.191 0.16008841567496274
491.494 0.20008841567496277
491.798 0.20008841567496277
492.101 0.19008841567496254
492.404 0.17841841567496292
492.708 0.15508841567496284
493.011 0.1834184156749628
493.316 0.18508841567496265
493.56 0.17420920783748142
493.8645 0.17504420783748134
494.17150000000004 0.19087920783748138
494.476 0.19587420783748147
494.781 0.18087420783748134
495.087 0.17587920783748148
495.392 0.17420920783748142
495.697 0.1975442078374813
496.002 0.17670920783748137
496.308 0.18337920783748154
496.61249999999995 0.17921420783748135
496.918 0.17087420783748156
497.2235 0.1917092078374815
497.528 0.19170920783748127
497.83349999999996 0.19087420783748157
498.1385 0.17170920783748148
498.4435 0.2017092078374815
498.7495 0.2183742078374812
499.0535 0.20004420783748147
499.35850000000005 0.17837920783748143
499.6645 0.20004420783748147
499.9695 0.19671420783748142
500.2735 0.1925442078374814
500.578 0.20504420783748137
500.8845 0.2058792078374815
501.18899999999996 0.19587920783748128
501.49350000000004 0.18170920783748148
501.799 0.1808792078374816
502.104 0.17504420783748134
502.409 0.19421420783748147
502.71299999999997 0.19837420783748141
503.01800000000003 0.21254420783748143
503.32399999999996 0.18087920783748138
503.62800000000004 0.20754420783748131
503.9325 0.20337920783748134
504.238 0.1917092078374815
504.543 0.18087920783748138
504.84749999999997 0.20837920783748146
505.15250000000003 0.1967092078374814
505.457 0.21671420783748144
505.7615 0.21171420783748132
506.0665 0.19004420783748124
506.37149999999997 0.2067092078374814
506.67600000000004 0.19004420783748147
506.9805 0.2108792078374814
507.2845 0.19421420783748147
507.58950000000004 0.20004420783748147
507.895 0.21920920783748135
508.199 0.19920920783748133
508.50300000000004 0.21254420783748143
508.8075 0.2008792078374814
509.11400000000003 0.19837920783748145
509.418 0.19587920783748128
509.722 0.1967092078374814
510.026 0.21337920783748135
510.33000000000004 0.19337920783748133
510.635 0.22337920783748136
510.94050000000004 0.19504420783748136
511.2445 0.21837920783748146
511.5485 0.21504420783748138
511.8525 0.18337920783748132
512.1575 0.2350442078374814
512.4615 0.20504420783748137
512.7665 0.18587920783748127
513.0705 0.2208792078374814
513.3745 0.22254420783748144
513.6795 0.20920920783748134
513.9835 0.19920920783748156
514.1345 0.18420920783748143
514.4385 0.21754420783748132
514.7425000000001 0.19837920783748145
515.0475 0.20837920783748146
515.3525 0.20004420783748125
515.6565 0.2117092078374813
515.9605 0.22254420783748144
516.2645 0.21171420783748132
516.5685000000001 0.22754420783748133
516.8725 0.22004420783748127
517.1769999999999 0.20504420783748137
517.482 0.20337920783748134
517.7860000000001 0.18587420783748124
518.09 0.1675442078374815
518.394 0.21920920783748135
518.6975 0.22087420783748138
519.0015 0.2117092078374815
519.3054999999999 0.2008792078374814
519.61 0.22337420783748155
519.914 0.19920920783748133
520.2175 0.20004420783748147
520.5225 0.20421420783748126
520.8265 0.2008792078374814
521.1305 0.2292142078374814
521.4335000000001 0.21587420783748149
521.7375 0.22754420783748133
522.0425 0.21754420783748132
522.346 0.17920920783748132
522.6495 0.22171420783748133
522.9535000000001 0.21254420783748143
523.2570000000001 0.20754420783748131
523.5605 0.2200442078374815
523.8644999999999 0.21254420783748143
524.168 0.22170920783748152
524.472 0.21004420783748148
524.7760000000001 0.22671420783748122
525.0799999999999 0.21504420783748138
525.384 0.2258792078374813
525.688 0.1925442078374814
525.992 0.20754420783748131
526.2955 0.2317092078374813
526.5989999999999 0.24671420783748124
526.9025 0.20504420783748137
527.206 0.2167092078374814
527.5095 0.2125442078374812
527.813 0.22337420783748155
528.1165000000001 0.1825442078374814
528.4205 0.22337920783748136
528.7235000000001 0.1775442078374813
529.0275 0.1967092078374814
529.3305 0.21337420783748154
529.6345 0.24170920783748132
529.9375 0.21337920783748135
530.2415000000001 0.23420920783748125
530.5445 0.21837920783748146
530.848 0.20004420783748147
531.1514999999999 0.20837420783748142
531.4549999999999 0.22920920783748136
531.7584999999999 0.2117092078374813
532.0615 0.23171420783748134
532.365 0.1975442078374813
532.6685 0.22837420783748144
532.972 0.20921420783748138
533.275 0.21504420783748138
533.5785 0.2108792078374814
533.8820000000001 0.21337920783748135
534.185 0.21587420783748126
534.4884999999999 0.2267092078374814
534.792 0.21504420783748138
535.095 0.2167092078374814
535.3985 0.19754420783748153
535.7015 0.2158792078374813
536.005 0.17921420783748135
536.308 0.19587920783748128
536.6115 0.1825442078374814
536.762 0.18837920783748144
537.0654999999999 0.1875442078374813
537.3685 0.18837920783748144
537.672 0.2008792078374814
537.975 0.19420920783748144
538.278 0.20337920783748134
538.5799999999999 0.2017092078374815
538.883 0.21171420783748132
539.1865 0.17920920783748132
539.49 0.18421420783748146
539.793 0.18587420783748146
540.096 0.20421420783748148
540.399 0.16421420783748122
540.702 0.1767142078374814
541.005 0.1925442078374814
541.3074999999999 0.18171420783748152
541.6105 0.18920920783748132
541.9135 0.13920920783748128
542.2165 0.17504420783748134
542.5195 0.12754420783748124
542.8215 0.17670920783748137
543.1245 0.17504420783748134
543.4275 0.18421420783748124
543.7305 0.18420920783748143
544.0335 0.17504420783748134
544.3365 0.20254420783748142
544.6395 0.16587920783748125
544.9414999999999 0.16504420783748133
545.2445 0.15587420783748143
545.5465 0.16587920783748147
545.8495 0.15587420783748143
546.1525 0.15587920783748146
546.4549999999999 0.16837920783748142
546.758 0.1583792078374814
547.0609999999999 0.17337920783748154
547.363 0.17670920783748137
547.6659999999999 0.15421420783748144
547.9680000000001 0.15754420783748127
548.271 0.15254420783748138
548.5730000000001 0.18504420783748157
548.876 0.18754420783748152
549.179 0.15920920783748152
549.482 0.17170920783748125
549.784 0.15504420783748132
550.0854999999999 0.15504420783748132
550.388 0.1692092078374813
550.691 0.14087920783748156
550.9939999999999 0.15670920783748135
551.2964999999999 0.12670920783748132
551.5985000000001 0.15587920783748124
551.9010000000001 0.1583792078374814
552.2025000000001 0.14754420783748148
552.5055 0.14670920783748134
552.8085000000001 0.1458742078374812
553.1105 0.11254420783748134
553.4124999999999 0.12337920783748127
553.7145 0.12754420783748147
554.0165 0.16754420783748128
554.3195000000001 0.15587920783748146
554.622 0.14087920783748134
554.9235000000001 0.11587920783748143
555.2265 0.1308742078374813
555.528 0.1100442078374814
555.8305 0.13670920783748133
556.133 0.13254420783748136
556.435 0.15004420783748143
556.7375 0.10337920783748147
557.039 0.12087920783748132
557.3415 0.11754420783748123
557.644 0.1308742078374813
557.9459999999999 0.13087920783748133
558.247 0.11587420783748117
558.55 0.13754420783748147
558.852 0.14004420783748142
559.1534999999999 0.15087920783748157
559.304 0.14671420783748138
559.606 0.1300442078374814
559.908 0.13671420783748137
560.2090000000001 0.12171420783748124
560.512 0.12420920783748138
560.8140000000001 0.15504420783748132
561.1155 0.14170920783748145
561.417 0.12087920783748132
561.719 0.1392092078374815
562.022 0.11920920783748148
562.323 0.12754420783748147
562.6245 0.12337920783748127
562.927 0.1342092078374814
563.229 0.12254420783748135
563.5305 0.1050442078374815
563.832 0.12754420783748124
564.1345 0.1542092078374814
564.4365 0.13171420783748125
564.7375 0.1142142078374814
565.0395 0.13087920783748133
565.3415 0.12254420783748135
565.6424999999999 0.09670920783748152
565.9435000000001 0.13670920783748133
566.2465 0.12337920783748127
566.5485 0.11170920783748142
566.8485000000001 0.15004420783748143
567.1510000000001 0.13337920783748128
567.453 0.10920920783748148
567.7545 0.12837920783748138
568.0554999999999 0.13504420783748153
568.3575000000001 0.12337420783748124
568.6600000000001 0.1292092078374815
568.96 0.12171420783748124
569.262 0.12837920783748138
569.5640000000001 0.11504420783748129
569.864 0.15170920783748124
570.1665 0.16254420783748139
570.469 0.14587920783748123
570.769 0.13921420783748154
571.0709999999999 0.1342092078374814
571.373 0.14337420783748148
571.673 0.11670920783748154
571.975 0.08754420783748143
572.2760000000001 0.1392092078374815
572.577 0.11670920783748132
572.879 0.10004420783748139
573.1800000000001 0.12754420783748124
573.481 0.07837420783748131
573.7835 0.13170920783748144
574.0844999999999 0.12754420783748147
574.3855 0.11504420783748129
574.687 0.13171420783748125
574.988 0.1308742078374813
575.289 0.14170920783748145
575.59 0.11670920783748132
575.8905 0.1333792078374815
576.1925 0.12254420783748135
576.4935 0.13754420783748147
576.7945 0.11504420783748129
577.0955 0.13254420783748136
577.3975 0.13087920783748133
577.6985 0.12920920783748127
577.999 0.14170920783748123
578.3 0.0967092078374813
578.601 0.14587920783748146
578.9024999999999 0.1250442078374813
579.2035 0.11170920783748142
579.5045 0.08837920783748157
579.806 0.08670920783748151
580.106 0.09004420783748138
580.408 0.12837420783748135
580.7075 0.13587920783748123
581.009 0.11754420783748146
581.311 0.10171420783748145
581.611 0.13754420783748147
581.761 0.14670920783748134
582.061 0.13587920783748123
582.3620000000001 0.11170920783748142
582.663 0.1100442078374814
582.9635000000001 0.10004420783748139
583.264 0.12754420783748147
583.566 0.11087920783748131
583.8665000000001 0.13671420783748137
584.167 0.13087920783748133
584.4675 0.1100442078374814
584.7685 0.13254420783748136
585.069 0.1300442078374814
585.3695 0.11671420783748135
585.6715 0.12087420783748129
585.9704999999999 0.11754420783748146
586.2725 0.1250442078374813
586.572 0.1250442078374813
586.8734999999999 0.1200442078374814
587.1735 0.12254420783748157
587.4745 0.14504420783748131
587.7745 0.13670920783748133
588.0754999999999 0.1200442078374814
588.3755 0.1200442078374814
588.6765 0.09754420783748144
588.9765 0.10920920783748148
589.2775 0.11837420783748134
589.577 0.14171420783748126
589.8785 0.1442092078374814
590.1790000000001 0.11420920783748159
590.4795 0.11587920783748121
590.78 0.14754420783748148
591.0805 0.14670920783748134
591.3810000000001 0.12920920783748127
591.681 0.14670920783748156
591.982 0.10754420783748145
592.2819999999999 0.12421420783748141
592.582 0.1292142078374813
592.8820000000001 0.1442092078374814
593.183 0.14170920783748145
593.4825000000001 0.13670920783748156
593.784 0.12337920783748127
594.083 0.13087920783748133
594.3845 0.14587420783748142
594.684 0.14254420783748137
594.984 0.13254420783748136
595.2845 0.09420920783748135
595.5835 0.16504420783748133
595.885 0.1342142078374812
596.184 0.1383792078374814
596.4855 0.11254420783748134
596.7845 0.15004420783748143
597.086 0.13337920783748128
597.385 0.11587920783748143
597.6855 0.12420920783748138
597.9855 0.11254420783748134
598.2855 0.14837420783748137
598.5854999999999 0.11504420783748151
598.885 0.15504420783748132
599.1855 0.13170920783748144
599.4855 0.1342142078374812
599.7855 0.1250442078374813
600.0854999999999 0.16421420783748122
600.3855 0.1158742078374814
600.6845000000001 0.1575442078374815
600.985 0.10087420783748127
601.2850000000001 0.12587920783748144
601.5840000000001 0.1300442078374814
601.8855 0.15670920783748135
602.1845000000001 0.13754420783748125
602.4855 0.1100442078374814
602.7845 0.1492092078374813
603.0835 0.11670920783748132
603.3845 0.11671420783748157
603.5329999999999 0.11754420783748146
603.832 0.15671420783748138
604.133 0.13837420783748136
604.4315 0.13170920783748144
604.7305 0.10504420783748128
605.0315 0.1408742078374813
605.3305 0.14670920783748156
605.6305 0.1342092078374814
605.9304999999999 0.14671420783748138
606.2294999999999 0.14171420783748126
606.5295 0.13754420783748147
606.8295 0.13087920783748133
607.1285 0.14170920783748145
607.4285 0.12670920783748155
607.7280000000001 0.1200442078374814
608.0275 0.12837920783748138
608.3265 0.1383792078374814
608.6265000000001 0.11670920783748154
608.9265 0.13754420783748147
609.2255 0.10254420783748133
609.525 0.15004420783748143
609.825 0.14170920783748145
610.1235 0.13337920783748128
610.4225 0.11754420783748146
610.723 0.12087420783748151
611.0219999999999 0.1333792078374815
611.3205 0.1542092078374814
611.6215 0.11170920783748142
611.9200000000001 0.12254420783748135
612.219 0.1342092078374814
612.519 0.14587420783748142
612.818 0.12670920783748132
613.117 0.13754420783748147
613.4169999999999 0.1392092078374815
613.715 0.1350442078374813
614.015 0.13171420783748147
614.315 0.13087420783748152
614.613 0.12337920783748127
614.912 0.11337420783748123
615.213 0.13254420783748136
615.511 0.1108742078374815
615.81 0.1258742078374814
616.1095 0.10754420783748145
616.409 0.12670920783748155
616.7075 0.14254420783748137
617.0060000000001 0.08504420783748126
617.306 0.1350442078374813
617.6055 0.0833742078374812
617.904 0.12170920783748121
618.2035000000001 0.09670920783748152
618.502 0.10921420783748151
618.8005 0.11920920783748126
619.0999999999999 0.09337920783748146
619.3995 0.11254420783748134
619.698 0.11837920783748138
619.9965 0.12754420783748147
620.2945 0.1200442078374814
620.5955 0.09254420783748155
620.8934999999999 0.09421420783748138
621.1925 0.09670920783748152
621.4905 0.10254420783748133
621.7895 0.09087420783748126
622.0895 0.12420920783748138
622.3875 0.11754420783748146
622.6865 0.11337920783748148
622.9855 0.12337420783748146
623.2835 0.12420920783748138
623.5825 0.13087920783748133
623.8815 0.10087920783748153
624.1804999999999 0.09421420783748138
624.4794999999999 0.13087920783748133
624.7775 0.09587420783748138
625.0754999999999 0.09337920783748146
625.2235000000001 0.08921420783748127
625.5245 0.12420920783748138
625.8225 0.08920920783748124
626.1205 0.10754420783748145
626.4190000000001 0.12754420783748147
626.7175 0.1342092078374814
627.0165 0.10920920783748125
627.3145 0.1258742078374814
627.614 0.10170920783748141
627.9124999999999 0.12337420783748146
628.2105 0.08504420783748148
628.5094999999999 0.09420920783748135
628.8075 0.11921420783748152
629.106 0.11671420783748135
629.404 0.11587920783748143
629.702 0.09087920783748152
630.0025 0.10004420783748139
630.3005 0.11087920783748131
630.5985000000001 0.09254420783748132
630.8965000000001 0.1008792078374813
631.1949999999999 0.10587920783748142
631.4929999999999 0.11254420783748156
631.7919999999999 0.07420920783748156
632.09 0.10420920783748136
632.3879999999999 0.10004420783748139
632.6859999999999 0.11254420783748134
632.984 0.11754420783748146
633.283 0.12837420783748135
633.582 0.09754420783748144
633.88 0.10170920783748141
634.178 0.0908792078374813
634.476 0.0998337535095987
634.774 0.11900778492763
635.072 0.08980099037487924
635.37 0.10402020811405902
635.669 0.10152918771920785
635.9670000000001 0.10420920783748136
636.265 0.1100442078374814
636.563 0.11420920783748137
636.861 0.09670920783748152
637.159 0.10837420783748156
637.4570000000001 0.08004420783748137
637.7545 0.08337920783748146
638.0519999999999 0.1067092078374813
638.351 0.11420920783748137
638.649 0.1300442078374814
638.947 0.12254420783748135
639.245 0.10004420783748139
639.5425 0.09587920783748141
639.8415 0.12171420783748146
640.139 0.11670920783748132
640.437 0.08171420783748143
640.735 0.11420920783748137
641.0325 0.11671420783748157
641.3315 0.06920920783748144
641.6289999999999 0.07670920783748128
641.927 0.09254420783748132
642.2245 0.13670920783748133
642.5225 0.10670920783748153
642.8199999999999 0.13754420783748147
643.1175000000001 0.10837920783748137
643.4145000000001 0.1200442078374814
643.712 0.0817092078374814
644.0095 0.1008792078374813
644.3075 0.09420920783748135
644.605 0.12420920783748138
644.9024999999999 0.12670920783748132
645.2005 0.10087920783748153
645.498 0.08337420783748142
645.7965 0.09837920783748136
646.0944999999999 0.1442092078374814
646.242 0.12837920783748138
646.5395 0.11587920783748143
646.8375000000001 0.10920920783748148
647.1345 0.13254420783748136
647.4325 0.1050442078374815
647.73 0.11254420783748156
648.0275 0.10921420783748151
648.325 0.13170920783748144
648.6225 0.09504420783748149
648.9200000000001 0.0858792078374814
649.2175 0.12754420783748124
649.514 0.1058792078374812
649.8115 0.15004420783748143
650.1089999999999 0.08254420783748154
650.4065 0.11837920783748138
650.704 0.11254420783748134
651.0015000000001 0.09587420783748138
651.299 0.1242092078374816
651.596 0.10754420783748145
651.8934999999999 0.09587920783748141
652.191 0.11920920783748126
652.4884999999999 0.0967092078374813
652.785 0.12254420783748135
653.082 0.10837420783748133
653.3795 0.09587420783748138
653.6769999999999 0.12420920783748138
653.9739999999999 0.10420920783748158
654.2715000000001 0.10587920783748142
654.569 0.14087920783748156
654.866 0.12087420783748151
655.1624999999999 0.10671420783748156
655.46 0.10504420783748128
655.7570000000001 0.09837420783748155
656.054 0.10587920783748142
656.3520000000001 0.0817092078374814
656.6479999999999 0.08754420783748121
656.945 0.1008792078374813
657.241 0.09420920783748135
657.539 0.08754420783748143
657.836 0.11837920783748138
658.133 0.08754420783748143
658.4300000000001 0.12337420783748146
658.7275 0.07837420783748131
659.025 0.10920920783748148
659.321 0.09837920783748136
659.6179999999999 0.1100442078374814
659.915 0.09254420783748155
660.212 0.1067092078374813
660.5094999999999 0.0967092078374813
660.8054999999999 0.08004420783748137
661.102 0.11254420783748134
661.399 0.10837920783748137
661.696 0.09420920783748135
661.9929999999999 0.10754420783748145
662.29 0.08671420783748154
662.586 0.08754420783748143
662.883 0.10920920783748148
663.1800000000001 0.1117092078374812
663.477 0.0817092078374814
663.7729999999999 0.09397194190826177
664.069 0.08752617441332836
664.366 0.0948407497715166
664.6635 0.08320632442892842
664.9605 0.07744602384113133
665.2560000000001 0.07587420783748136
665.553 0.10837420783748133
665.8499999999999 0.09254420783748132
666.1469999999999 0.08004420783748137
666.443 0.10920920783748148
666.739 0.10754420783748145
667.0360000000001 0.08587420783748137
667.3330000000001 0.07087420783748125
667.4795 0.06504420783748124
667.7760000000001 0.08587420783748137
668.073 0.06004420783748157
668.37 0.08920920783748146
668.6659999999999 0.10170920783748141
668.962 0.10004420783748139
669.2584999999999 0.09254420783748132
669.5554999999999 0.11254420783748156
669.851 0.08920920783748146
670.148 0.09087920783748152
670.4449999999999 0.09170920783748118
670.741 0.09004420783748138
671.0364999999999 0.0992142078374815
671.3330000000001 0.06504420783748147
671.63 0.09087920783748152
671.9259999999999 0.054209207837481316
672.2225 0.10754420783748123
672.518 0.08337920783748146
672.815 0.10837920783748137
673.111 0.09837920783748158
673.4075 0.07004420783748136
673.704 0.10254420783748133
673.999 0.10254420783748133
674.2955 0.08337920783748123
674.5920000000001 0.056709207837481485
674.888 0.07420920783748133
675.1845000000001 0.06087420783748146
675.48 0.0758792078374814
675.7760000000001 0.08254420783748131
676.072 0.07920920783748145
676.369 0.10004420783748139
676.665 0.08671420783748132
676.96 0.10337920783748147
677.2570000000001 0.09337920783748146
677.552 0.09087920783748152
677.8489999999999 0.08254420783748131
678.1445 0.08754420783748143
678.44 0.0708792078374815
678.7370000000001 0.08254420783748131
679.033 0.0817092078374814
679.328 0.09087420783748149
679.624 0.06504420783748147
679.921 0.09920920783748124
680.216 0.07420920783748133
680.512 0.09254420783748155
680.807 0.09254420783748132
681.1034999999999 0.05504420783748146
681.4000000000001 0.07671420783748131
681.694 0.0725442078374813
681.991 0.06254420783748152
682.2860000000001 0.08754420783748143
682.5830000000001 0.08004420783748137
682.8779999999999 0.08670920783748129
683.1735000000001 0.05421420783748135
683.47 0.0967092078374813
683.764 0.07754420783748142
684.0609999999999 0.08171420783748143
684.357 0.07420920783748156
684.652 0.09837420783748133
684.948 0.09087920783748152
685.2429999999999 0.06587920783748138
685.539 0.08337920783748123
685.835 0.07421420783748137
686.13 0.07920920783748123
686.426 0.0817092078374814
686.7215 0.08671420783748132
687.017 0.07837920783748134
687.3119999999999 0.07254420783748153
687.608 0.08337420783748142
687.9035 0.0858792078374814
688.05 0.09837920783748136
687.977 0.11500000000000021
688.275 0.050000000000000266
688.573 0.08667000000000025
688.869 0.08999999999999986
689.167 0.11667000000000005
689.466 0.08333000000000013
689.762 0.023330000000000073
690.06 0.06333000000000011
690.358 0.10499999999999998
690.654 0.08333000000000013
690.952 0.08166999999999991
691.25 0.05500000000000016
691.547 0.07833000000000023
691.845 0.07167000000000012
692.143 0.015000000000000124
692.439 0.023330000000000073
692.737 0.06000000000000005
693.033 0.08999999999999986
693.331 0.08667000000000025
693.629 0.050000000000000266
693.925 0.0950000000000002
694.223 0.11167000000000016
694.521 0.08000000000000007
694.817 0.05500000000000016
695.115 0.07667000000000002
695.413 0.08667000000000025
695.709 0.0016699999999998383
696.007 0.06999999999999984
696.303 0.0733299999999999
696.601 0.0383300000000002
696.899 0.013329999999999842
697.195 0.04499999999999993
697.493 0.03500000000000014
697.789 0.050000000000000266
698.087 0.08833000000000002
698.385 0.06833
698.681 0.06499999999999995
698.978 0.08833000000000002
699.274 0.06999999999999984
699.572 0.08000000000000007
699.868 0.021669999999999856
700.166 0.0733299999999999
700.464 0.09167000000000014
700.759 0.07167000000000012
701.057 0.040000000000000036
701.353 0.08667000000000025
701.651 0.006670000000000176
701.947 0.016669999999999963
702.244 0.0733299999999999
702.542 0.051670000000000105
702.838 0.03000000000000025
703.136 0.040000000000000036
703.431 0.08166999999999991
703.729 0.03666999999999998
704.025 0.026670000000000194
704.323 0.07667000000000002
704.618 0.08499999999999996
704.916 0.040000000000000036
705.212 0.06999999999999984
705.509 0.048329999999999984
705.805 0.028329999999999966
706.103 0.08333000000000013
706.4 0.05332999999999988
706.696 0.058330000000000215
706.993 0.03000000000000025
707.289 0.03332999999999986
707.587 0.0733299999999999
707.882 0.058330000000000215
708.18 0.07833000000000023
708.475 0.040000000000000036
708.773 0.051670000000000105
709.068 0.04333000000000009
709.366 0.07500000000000018
709.661 0.041669999999999874
709.959 0.08499999999999996
710.255 0.06999999999999984
710.552 0.07833000000000023
710.847 0.06499999999999995
711.145 0.048329999999999984
711.44 0.03000000000000025
711.736 0.10333000000000014
712.033 0.07500000000000018
712.329 0.06499999999999995
712.626 0.08166999999999991
712.922 0.051670000000000105
713.219 0.0950000000000002
713.514 0.06499999999999995
713.812 0.06499999999999995
714.107 0.01167000000000007
714.405 0.06999999999999984
714.7 0.10333000000000014
714.997 0.10999999999999988
715.293 0.08833000000000002
715.588 0.07667000000000002
715.885 0.058330000000000215
716.181 0.06333000000000011
716.478 0.08499999999999996
716.773 0.048329999999999984
717.07 0.06166999999999989
717.366 0.06166999999999989
717.661 0.06499999999999995
717.958 0.07833000000000023
718.254 0.04667000000000021
718.551 0.10333000000000014
718.846 0.08000000000000007
719.141 0.051670000000000105
719.438 0.08833000000000002
719.734 0.05500000000000016
720.031 0.015000000000000124
720.326 0.06499999999999995
720.621 0.11500000000000021
720.918 0.06499999999999995
721.213 0.07833000000000023
721.511 0.10833000000000004
721.806 0.06833
722.101 0.03666999999999998
722.398 0.09167000000000014
722.693 0.048329999999999984
722.99 0.08499999999999996
723.285 0.11167000000000016
723.58 0.10000000000000009
723.877 0.08000000000000007
724.172 0.09167000000000014
724.467 0.08000000000000007
724.764 0.058330000000000215
725.06 0.04499999999999993
725.354 0.10667000000000026
725.651 0.08000000000000007
725.946 0.11667000000000005
726.243 0.048329999999999984
726.538 0.058330000000000215
726.833 0.03666999999999998
727.13 0.06499999999999995
727.425 0.08833000000000002
727.72 0.0950000000000002
728.017 0.08000000000000007
728.312 0.08166999999999991
728.607 0.0733299999999999
728.904 0.06499999999999995
729.199 0.06000000000000005
729.494 0.08499999999999996
729.789 0.04667000000000021
730.085 0.03167000000000009
730.38 0.06999999999999984
730.675 0.10999999999999988
730.972 0.08166999999999991
731.267 0.13832999999999984
731.562 0.06333000000000011
731.858 0.05332999999999988
732.153 0.07667000000000002
732.448 0.06833
732.743 0.048329999999999984
733.039 0.05332999999999988
733.334 0.05500000000000016
733.629 0.08667000000000025
733.926 0.08667000000000025
734.22 0.016669999999999963
734.515 0.11332999999999993
734.81 0.05500000000000016
735.107 0.041669999999999874
735.401 0.058330000000000215
735.696 0.06999999999999984
735.991 0.10833000000000004
736.287 0.0950000000000002
736.582 0.08667000000000025
736.876 0.08999999999999986
737.171 0.05500000000000016
737.468 0.06667000000000023
737.762 0.09833000000000025
738.057 0.058330000000000215
738.352 0.08333000000000013
738.648 0.08166999999999991
738.943 0.04667000000000021
739.237 0.07500000000000018
739.532 0.058330000000000215
739.828 0.023330000000000073
740.123 0.07167000000000012
740.417 0.10166999999999993
740.712 0.06166999999999989
741.006 0.07167000000000012
741.303 0.07833000000000023
741.597 0.03167000000000009
741.892 0.08166999999999991
742.186 0.11500000000000021
742.483 0.04667000000000021
742.777 0.07500000000000018
743.072 0.0733299999999999
743.366 0.06833
743.66 0.08833000000000002
743.955 0.0950000000000002
744.251 0.09833000000000025
744.546 0.08000000000000007
744.84 0.10333000000000014
745.134 0.09167000000000014
745.429 0.07667000000000002
745.725 0.0950000000000002
746.019 0.07500000000000018
746.314 0.10667000000000026
746.608 0.07500000000000018
746.902 0.06499999999999995
747.197 0.07667000000000002
747.493 0.06833
747.787 0.08833000000000002
748.082 0.07669233104995099
748.376 0.07634199272870035
748.67 0.0767585525686254
748.964 0.07626865686167061
749.259 0.07703629094318343
749.555 0.05667
749.849 0.09332999999999991
750.143 0.026670000000000194
750.437 0.08333000000000013
750.732 0.10166999999999993
751.026 0.040000000000000036
751.32 0.08166999999999991
751.614 0.11833000000000027
751.91 0.04333000000000009
752.204 0.10999999999999988
752.498 0.10833000000000004
752.793 0.09667000000000003
753.087 0.06667000000000023
753.381 0.07500000000000018
753.675 0.06499999999999995
753.969 0.08999999999999986
754.263 0.08499999999999996
754.559 0.05667
754.853 0.03167000000000009
755.147 0.07167000000000012
755.441 0.09332999999999991
755.735 0.10667000000000026
756.029 0.051670000000000105
756.323 0.08166999999999991
756.617 0.04667000000000021
756.911 0.07833000000000023
757.205 0.11667000000000005
757.499 0.0733299999999999
757.793 0.11500000000000021
758.087 0.07167000000000012
758.381 0.09167000000000014
758.677 0.06999999999999984
758.971 0.058330000000000215
759.265 0.08999999999999986
759.559 0.06667000000000023
759.853 0.048329999999999984
760.146 0.0950000000000002
760.44 0.07667000000000002
760.734 0.06166999999999989
761.028 0.11332999999999993
761.322 0.06000000000000005
761.616 0.06333000000000011
761.909 0.0383300000000002
762.203 0.06000000000000005
762.497 0.08667000000000025
762.791 0.08166999999999991
763.085 0.06999999999999984
763.378 0.06000000000000005
763.672 0.06166999999999989
763.966 0.04333000000000009
764.26 0.058330000000000215
764.553 0.06667000000000023
764.847 0.08667000000000025
765.141 0.03666999999999998
765.435 0.10000000000000009
765.728 0.08333000000000013
766.022 0.04333000000000009
766.316 0.0950000000000002
766.609 0.06333000000000011
766.903 0.07167000000000012
767.197 0.04333000000000009
767.49 0.05500000000000016
767.784 0.06833
768.078 0.10499999999999998
768.371 0.09167000000000014
768.665 0.08166999999999991
768.958 0.04667000000000021
769.252 0.08667000000000025
769.546 0.06833
769.839 0.08999999999999986
770.133 0.06166999999999989
770.426 0.02499999999999991
770.72 0.058330000000000215
771.013 0.06499999999999995
771.305 0.06000000000000005
771.598 0.008329999999999949
771.892 0.05667
772.185 0.07667000000000002
772.479 0.10999999999999988
772.772 0.08833000000000002
773.066 0.10166999999999993
773.359 0.14666999999999986
773.653 0.10833000000000004
773.946 0.11332999999999993
774.239 0.05667
774.533 0.050000000000000266
774.826 0.03666999999999998
775.12 0.0950000000000002
775.411 0.09667000000000003
775.704 0.10166999999999993
775.998 0.010000000000000231
776.291 0.08499999999999996
776.584 0.07167000000000012
776.878 0.10833000000000004
777.171 0.08499999999999996
777.464 0.041669999999999874
777.758 0.05500000000000016
778.049 0.05500000000000016
778.342 0.026670000000000194
778.636 0.03000000000000025
778.929 0.11667000000000005
779.222 0.10000000000000009
779.515 0.06833
779.809 0.07667000000000002
780.102 0.06499999999999995
780.393 0.0383300000000002
780.686 0.08499999999999996
780.979 0.06833
781.273 0.040000000000000036
781.566 0.05500000000000016
781.859 0.06000000000000005
782.152 0.0
782.443 0.08667000000000025
782.737 0.02499999999999991
783.03 0.08667000000000025
783.323 0.03167000000000009
783.616 0.07833000000000023
783.909 0.051670000000000105
784.2 0.07667000000000002
784.493 0.04667000000000021
784.786 0.07667000000000002
785.079 0.051670000000000105
785.372 0.08000000000000007
785.664 0.048329999999999984
785.957 0.07167000000000012
786.25 0.05667
786.543 0.09833000000000025
786.836 0.0733299999999999
787.127 0.08000000000000007
787.42 0.06333000000000011
787.713 0.09167000000000014
788.006 0.08999999999999986
788.299 0.048329999999999984
788.59 0.1200000000000001
788.882 0.08166999999999991
789.175 0.05332999999999988
789.468 0.07500000000000018
789.761 0.020000000000000018
790.052 0.11500000000000021
790.345 0.08667000000000025
790.638 0.09833000000000025
790.931 0.09833000000000025
791.222 0.06333000000000011
791.515 0.08499999999999996
791.807 0.050000000000000266
792.1 0.06999999999999984
792.391 0.058330000000000215
792.684 0.06000000000000005
792.977 0.08166999999999991
793.27 0.06499999999999995
793.56 0.07500000000000018
793.853 0.0733299999999999
794.146 0.04333000000000009
794.439 0.07500000000000018
794.729 0.0950000000000002
795.022 0.048329999999999984
795.315 0.06833
795.606 0.09332999999999991
795.898 0.06999999999999984
796.191 0.06499999999999995
796.484 0.048329999999999984
796.775 0.07167000000000012
797.067 0.06166999999999989
797.36 0.07167000000000012
797.651 0.04667000000000021
797.943 0.08999999999999986
798.236 0.06745790647892225
798.528 0.06703726694117496
798.819 0.06747256054736406
799.112 0.06742507754040172
799.404 0.06769519112347977
799.695 0.06000000000000005
799.987 0.0733299999999999
800.28 0.06000000000000005
800.571 0.06667000000000023
800.863 0.04667000000000021
801.156 0.04667000000000021
801.446 0.07167000000000012
801.739 0.08667000000000025
802.031 0.0733299999999999
802.322 0.07833000000000023
802.614 0.06166999999999989
802.907 0.07500000000000018
803.197 0.09667000000000003
803.49 0.13667000000000007
803.782 0.08999999999999986
804.073 0.11500000000000021
804.365 0.06833
804.658 0.028329999999999966
804.948 0.08000000000000007
805.241 0.06667000000000023
805.531 0.10166999999999993
805.823 0.06667000000000023
806.116 0.10333000000000014
806.406 0.10999999999999988
806.698 0.10166999999999993
806.991 0.040000000000000036
807.281 0.06166999999999989
807.574 0.0950000000000002
807.864 0.08667000000000025
808.156 0.10833000000000004
808.449 0.03666999999999998
808.739 0.0950000000000002
809.031 0.09667000000000003
809.321 0.040000000000000036
809.614 0.051670000000000105
809.906 0.09667000000000003
810.196 0.08667000000000025
810.489 0.0950000000000002
810.779 0.09167000000000014
811.071 0.05500000000000016
811.363 0.08833000000000002
811.653 0.10833000000000004
811.946 0.06999999999999984
812.236 0.05500000000000016
812.528 0.07500000000000018
812.818 0.07500000000000018
813.11 0.11167000000000016
813.401 0.05500000000000016
813.693 0.0733299999999999
813.985 0.10999999999999988
814.275 0.08333000000000013
814.567 0.08166999999999991
814.857 0.050000000000000266
815.149 0.14666999999999986
815.439 0.07833000000000023
815.731 0.08667000000000025
816.022 0.06667000000000023
816.314 0.050000000000000266
816.604 0.10166999999999993
816.896 0.11167000000000016
817.188 0.05332999999999988
817.478 0.07833000000000023
817.77 0.10833000000000004
818.06 0.08833000000000002
818.352 0.09833000000000025
818.642 0.11332999999999993
818.934 0.08499999999999996
819.224 0.09167000000000014
819.516 0.051670000000000105
819.806 0.05332999999999988
820.098 0.10166999999999993
820.388 0.08667000000000025
820.679 0.07833000000000023
820.969 0.06833
821.261 0.14166999999999996
821.551 0.11167000000000016
821.843 0.048329999999999984
822.133 0.08000000000000007
822.423 0.04333000000000009
822.715 0.06667000000000023
823.005 0.11667000000000005
823.296 0.06999999999999984
823.586 0.04333000000000009
823.878 0.08833000000000002
824.168 0.08333000000000013
824.46 0.13500000000000023
824.749 0.10999999999999988
825.041 0.08667000000000025
825.331 0.03167000000000009
825.623 0.11167000000000016
825.912 0.06999999999999984
826.202 0.09167000000000014
826.494 0.11332999999999993
826.784 0.08000000000000007
827.075 0.10999999999999988
827.365 0.08166999999999991
827.657 0.06499999999999995
827.947 0.06000000000000005
828.236 0.04667000000000021
828.528 0.08999999999999986
828.818 0.08667000000000025
829.109 0.10999999999999988
829.399 0.09667000000000003
829.69 0.07667000000000002
829.98 0.10499999999999998
830.27 0.05500000000000016
830.561 0.07667000000000002
830.851 0.08667000000000025
831.143 0.058330000000000215
831.432 0.08166999999999991
831.722 0.09167000000000014
832.013 0.08000000000000007
832.303 0.06667000000000023
832.592 0.0733299999999999
832.884 0.11500000000000021
833.173 0.05500000000000016
833.465 0.09833000000000025
833.754 0.10333000000000014
834.044 0.10833000000000004
834.335 0.09645750774153461
834.625 0.09635599165750319
834.914 0.09549699074179996
835.206 0.0961384682005848
835.495 0.09632058981184644
835.785 0.12666999999999984
836.076 0.04499999999999993
836.366 0.06499999999999995
836.657 0.07500000000000018
836.946 0.07167000000000012
837.236 0.07667000000000002
837.527 0.05667
837.817 0.08000000000000007
838.106 0.11500000000000021
838.397 0.07833000000000023
838.687 0.14666999999999986
838.976 0.06667000000000023
839.265 0.10333000000000014
839.557 0.09332999999999991
839.846 0.11667000000000005
840.135 0.11667000000000005
840.426 0.08667000000000025
840.716 0.10833000000000004
841.005 0.058330000000000215
841.296 0.08667000000000025
841.586 0.08833000000000002
841.875 0.06000000000000005
842.166 0.11833000000000027
842.455 0.08499999999999996
842.744 0.058330000000000215
843.034 0.11332999999999993
843.325 0.09167000000000014
843.614 0.10667000000000026
843.903 0.09833000000000025
844.194 0.11332999999999993
844.484 0.06000000000000005
844.773 0.11167000000000016
845.062 0.07500000000000018
845.353 0.07500000000000018
845.642 0.10499999999999998
845.931 0.09833000000000025
846.22 0.07500000000000018
846.511 0.08999999999999986
846.801 0.07667000000000002
847.09 0.06333000000000011
847.379 0.08499999999999996
847.67 0.06333000000000011
847.959 0.10166999999999993
848.248 0.048329999999999984
848.537 0.10000000000000009
848.828 0.10499999999999998
849.117 0.07500000000000018
849.406 0.07833000000000023
849.695 0.02499999999999991
849.984 0.11167000000000016
850.275 0.051670000000000105
850.564 0.1516700000000002
850.853 0.0950000000000002
851.142 0.11167000000000016
851.431 0.10499999999999998
851.722 0.07833000000000023
852.011 0.10999999999999988
852.299 0.1200000000000001
852.588 0.08833000000000002
852.877 0.08667000000000025
853.168 0.06833
853.457 0.12333000000000016
853.746 0.0950000000000002
854.035 0.08499999999999996
854.324 0.08166999999999991
854.614 0.08499999999999996
854.903 0.08333000000000013
855.192 0.07500000000000018
855.481 0.12333000000000016
855.77 0.07833000000000023
856.058 0.09833000000000025
856.349 0.08999999999999986
856.638 0.08333000000000013
856.927 0.07167000000000012
857.216 0.08333000000000013
857.504 0.12166999999999994
857.793 0.0950000000000002
858.082 0.12333000000000016
858.372 0.12333000000000016
858.661 0.12288627122648466
858.95 0.12325563816873242
859.239 0.12301532520212222
859.527 0.12289380620838797
859.816 0.12288141367343108
860.105 0.13667000000000007
860.395 0.10833000000000004
860.684 0.16500000000000004
860.973 0.10999999999999988
861.261 0.10833000000000004
861.55 0.09833000000000025
861.838 0.1299999999999999
862.127 0.07667000000000002
862.416 0.08999999999999986
862.704 0.08166999999999991
862.993 0.14333000000000018
863.283 0.06333000000000011
863.572 0.1633300000000002
863.86 0.10000000000000009
864.149 0.07500000000000018
864.437 0.12333000000000016
864.726 0.19167000000000023
865.014 0.1200000000000001
865.303 0.07500000000000018
865.591 0.07167000000000012
865.88 0.15332999999999997
866.168 0.12333000000000016
866.457 0.0950000000000002
866.747 0.09667000000000003
867.036 0.10999999999999988
867.324 0.12333000000000016
867.613 0.12333000000000016
867.901 0.11332999999999993
868.189 0.1499999999999999
868.478 0.12666999999999984
868.766 0.13332999999999995
869.055 0.1200000000000001
869.343 0.14333000000000018
869.631 0.12666999999999984
869.92 0.08667000000000025
870.208 0.07667000000000002
870.496 0.1299999999999999
870.785 0.09667000000000003
871.073 0.08000000000000007
871.361 0.11167000000000016
871.65 0.15500000000000025
871.938 0.13332999999999995
872.226 0.08999999999999986
872.514 0.10833000000000004
872.803 0.1516700000000002
873.091 0.16166999999999998
873.379 0.11167000000000016
873.667 0.11667000000000005
873.956 0.10499999999999998
874.244 0.15332999999999997
874.532 0.10999999999999988
874.82 0.11667000000000005
875.108 0.11332999999999993
875.397 0.08499999999999996
875.685 0.10667000000000026
875.973 0.0733299999999999
876.261 0.12666999999999984
876.549 0.10667000000000026
876.837 0.08999999999999986
877.125 0.06667000000000023
877.414 0.11167000000000016
877.702 0.11332999999999993
877.99 0.14666999999999986
878.278 0.0950000000000002
878.566 0.12166999999999994
878.854 0.1200000000000001
879.142 0.06499999999999995
879.43 0.08999999999999986
879.718 0.10999999999999988
880.004 0.10000000000000009
880.292 0.1200000000000001
880.58 0.09667000000000003
880.868 0.08166999999999991
881.156 0.06999999999999984
881.444 0.14666999999999986
881.732 0.10333000000000014
882.02 0.16666999999999987
882.308 0.13167000000000018
882.596 0.13832999999999984
882.884 0.12666999999999984
883.172 0.10000000000000009
883.458 0.08999999999999986
883.746 0.09667000000000003
884.034 0.1200000000000001
884.322 0.11667000000000005
884.609 0.09167000000000014
884.897 0.1299999999999999
885.185 0.12666999999999984
885.473 0.12666999999999984
885.761 0.07167000000000012
886.049 0.08166999999999991
886.335 0.10667000000000026
886.622 0.12166999999999994
886.91 0.07167000000000012
887.198 0.12166999999999994
887.486 0.09833000000000025
887.774 0.16000000000000014
888.061 0.12166999999999994
888.347 0.09167000000000014
888.635 0.10499999999999998
888.923 0.09833000000000025
889.21 0.14666999999999986
889.498 0.10999999999999988
889.786 0.10166999999999993
890.073 0.08000000000000007
890.359 0.08667000000000025
890.647 0.09833000000000025
890.935 0.12833000000000006
891.222 0.11332999999999993
891.51 0.11167000000000016
891.798 0.13167000000000018
892.083 0.09833000000000025
892.371 0.11667000000000005
892.659 0.08999999999999986
892.946 0.1299999999999999
893.234 0.0733299999999999
893.519 0.1499999999999999
893.807 0.07500000000000018
894.094 0.11667000000000005
894.382 0.11332999999999993
894.67 0.1566700000000001
894.955 0.12248701157753805
895.243 0.12389434485040907
895.53 0.12407598431892453
895.818 0.12356381929466664
896.105 0.12455555021155407
896.391 0.13667000000000007
896.678 0.08667000000000025
896.966 0.08667000000000025
897.253 0.12833000000000006
897.539 0.1200000000000001
897.826 0.09167000000000014
898.114 0.14000000000000012
898.401 0.09167000000000014
898.689 0.07833000000000023
898.974 0.14500000000000002
899.261 0.1200000000000001
899.549 0.06999999999999984
899.836 0.10667000000000026
900.122 0.15500000000000025
900.409 0.08166999999999991
900.696 0.11500000000000021
900.982 0.13332999999999995
901.269 0.06833
901.556 0.11667000000000005
901.844 0.040000000000000036
902.129 0.13667000000000007
902.417 0.08333000000000013
902.704 0.1566700000000001
902.991 0.10499999999999998
903.276 0.10333000000000014
903.564 0.09332999999999991
903.851 0.06667000000000023
904.136 0.0733299999999999
904.423 0.0733299999999999
904.711 0.11667000000000005
904.998 0.0950000000000002
905.283 0.14166999999999996
905.57 0.09167000000000014
905.858 0.08499999999999996
906.143 0.11167000000000016
906.43 0.08499999999999996
906.717 0.11167000000000016
907.002 0.051670000000000105
907.29 0.08667000000000025
907.577 0.08999999999999986
907.862 0.1499999999999999
908.149 0.12333000000000016
908.436 0.11667000000000005
908.721 0.050000000000000266
909.008 0.10999999999999988
909.295 0.09833000000000025
909.581 0.12833000000000006
909.868 0.08833000000000002
910.155 0.06667000000000023
910.44 0.10000000000000009
910.727 0.10667000000000026
911.014 0.10667000000000026
911.299 0.14833000000000007
911.586 0.12833000000000006
911.871 0.14500000000000002
912.158 0.08833000000000002
912.445 0.11833000000000027
912.73 0.10333000000000014
913.017 0.14666999999999986
913.304 0.14333000000000018
913.589 0.11833000000000027
913.876 0.08166999999999991
914.161 0.12833000000000006
914.448 0.051670000000000105
914.735 0.09332999999999991
915.02 0.11500000000000021
915.307 0.125
915.591 0.08499999999999996
915.878 0.125
916.165 0.08833000000000002
916.45 0.11332999999999993
916.737 0.11500000000000021
917.022 0.13332999999999995
917.309 0.15500000000000025
917.595 0.10667000000000026
917.88 0.12833000000000006
918.167 0.13332999999999995
918.452 0.06667000000000023
918.739 0.08667000000000025
919.024 0.14166999999999996
919.31 0.10000000000000009
919.597 0.12833000000000006
919.882 0.05500000000000016
920.169 0.14000000000000012
920.453 0.0733299999999999
920.74 0.08166999999999991
921.025 0.0733299999999999
921.312 0.14666999999999986
921.596 0.11833000000000027
921.883 0.09667000000000003
922.168 0.07167000000000012
922.454 0.14666999999999986
922.741 0.12166999999999994
923.026 0.08667000000000025
923.312 0.10000000000000009
923.597 0.1516700000000002
923.884 0.06166999999999989
924.168 0.1200000000000001
924.455 0.10499999999999998
924.74 0.1200000000000001
925.026 0.13667000000000007
925.311 0.11500000000000021
925.597 0.10000000000000009
925.882 0.1299999999999999
926.169 0.13332999999999995
926.453 0.10000000000000009
926.74 0.10333000000000014
927.024 0.12666999999999984
927.311 0.11955788870676454
927.595 0.11957623652554661
927.882 0.11980195685250417
928.166 0.11959738110597629
928.453 0.11962300049795038
928.737 0.13332999999999995
929.022 0.11500000000000021
929.308 0.10833000000000004
929.593 0.13167000000000018
929.879 0.15832999999999986
930.164 0.13667000000000007
930.45 0.16000000000000014
930.734 0.1499999999999999
931.021 0.1499999999999999
931.305 0.11833000000000027
931.592 0.14500000000000002
931.876 0.13167000000000018
932.16 0.06166999999999989
932.447 0.13667000000000007
932.731 0.12333000000000016
933.018 0.1200000000000001
933.302 0.16666999999999987
933.588 0.11167000000000016
933.873 0.09833000000000025
934.157 0.13832999999999984
934.443 0.1499999999999999
934.727 0.12833000000000006
935.014 0.14500000000000002
935.298 0.10000000000000009
935.582 0.11833000000000027
935.869 0.12166999999999994
936.153 0.08999999999999986
936.439 0.13500000000000023
936.723 0.13167000000000018
937.008 0.11667000000000005
937.294 0.14000000000000012
937.578 0.1200000000000001
937.864 0.17500000000000027
938.148 0.12666999999999984
938.433 0.1566700000000001
938.719 0.1499999999999999
939.003 0.13332999999999995
939.287 0.13332999999999995
939.573 0.14666999999999986
939.857 0.11332999999999993
940.143 0.14333000000000018
940.428 0.14666999999999986
940.712 0.1516700000000002
940.998 0.14000000000000012
941.282 0.16000000000000014
941.566 0.12166999999999994
941.852 0.14333000000000018
942.136 0.15332999999999997
942.42 0.14000000000000012
942.706 0.13167000000000018
942.99 0.11167000000000016
943.274 0.18999999999999995
943.56 0.15500000000000025
943.844 0.14500000000000002
944.128 0.14500000000000002
944.414 0.1883300000000001
944.698 0.09332999999999991
944.982 0.16999999999999993
945.268 0.1516700000000002
945.552 0.12833000000000006
945.836 0.1516700000000002
946.12 0.15832999999999986
946.406 0.1633300000000002
946.69 0.16000000000000014
946.974 0.16166999999999998
947.26 0.125
947.544 0.18167
947.828 0.18000000000000016
948.114 0.17832999999999988
948.397 0.1716700000000002
948.681 0.15332999999999997
948.965 0.1566700000000001
949.251 0.19667000000000012
949.535 0.20500000000000007
949.819 0.15500000000000025
950.103 0.10333000000000014
950.388 0.16500000000000004
950.672 0.19167000000000023
950.956 0.13167000000000018
951.24 0.1866699999999999
951.525 0.13667000000000007
951.809 0.1516700000000002
952.093 0.16000000000000014
952.377 0.13332999999999995
952.662 0.14666999999999986
952.946 0.16999999999999993
953.23 0.16166999999999998
953.514 0.17332999999999998
953.799 0.12666999999999984
954.083 0.16999999999999993
954.367 0.22999999999999998
954.65 0.22666999999999993
954.934 0.21499999999999986
955.22 0.13167000000000018
955.503 0.16000000000000014
955.787 0.16500000000000004
956.071 0.1499999999999999
956.356 0.17832999999999988
956.64 0.125
956.924 0.16166999999999998
957.207 0.1883300000000001
957.491 0.16000000000000014
957.774 0.14166999999999996
958.06 0.1499999999999999
958.343 0.16166999999999998
958.627 0.16999999999999993
958.911 0.18333000000000022
959.194 0.19499999999999984
959.48 0.16000000000000014
959.763 0.13500000000000023
960.047 0.17832999999999988
960.33 0.18500000000000005
960.614 0.14833000000000007
960.897 0.14833000000000007
961.182 0.1766700000000001
961.466 0.2066699999999999
961.749 0.17832999999999988
962.033 0.1883300000000001
962.316 0.13500000000000023
962.6 0.1516700000000002
962.883 0.12333000000000016
963.169 0.16999999999999993
963.452 0.12166999999999994
963.735 0.16000000000000014
964.019 0.1516700000000002
964.302 0.11667000000000005
964.586 0.1299999999999999
964.869 0.20167000000000002
965.152 0.15500000000000025
965.438 0.14000000000000012
965.721 0.125
966.004 0.14833000000000007
966.288 0.20833000000000013
966.571 0.12666999999999984
966.854 0.13167000000000018
967.137 0.14333000000000018
967.421 0.19333
967.704 0.18333000000000022
967.987 0.1516700000000002
968.272 0.1683300000000001
968.556 0.15500000000000025
968.839 0.19333
969.122 0.20999999999999996
969.405 0.1633300000000002
969.689 0.16000000000000014
969.972 0.12833000000000006
970.255 0.1683300000000001
970.538 0.1566700000000001
970.821 0.18000000000000016
971.105 0.1683300000000001
971.388 0.14666999999999986
971.671 0.1516700000000002
971.954 0.13332999999999995
972.237 0.16166999999999998
972.52 0.18000000000000016
972.805 0.14333000000000018
973.088 0.16166999999999998
973.371 0.18999999999999995
973.655 0.14000000000000012
973.938 0.15332999999999997
974.221 0.19499999999999984
974.504 0.16999999999999993
974.787 0.13332999999999995
975.07 0.13667000000000007
975.353 0.13332999999999995
975.636 0.1299999999999999
975.919 0.19333
976.202 0.16999999999999993
976.485 0.16666999999999987
976.768 0.14666999999999986
977.051 0.22666999999999993
977.334 0.12666999999999984
977.617 0.17332999999999998
977.9 0.13667000000000007
978.183 0.14500000000000002
978.466 0.22333000000000025
978.749 0.19167000000000023
979.031 0.15832999999999986
979.314 0.16500000000000004
979.597 0.19333
979.88 0.16666999999999987
980.163 0.16166999999999998
980.446 0.1883300000000001
980.729 0.14666999999999986
981.01 0.18999999999999995
981.293 0.19333
981.575 0.20000000000000018
981.858 0.20000000000000018
982.141 0.20500000000000007
982.424 0.16666999999999987
982.707 0.16000000000000014
982.989 0.21499999999999986
983.272 0.20000000000000018
983.555 0.1883300000000001
983.838 0.1883300000000001
984.12 0.1633300000000002
984.403 0.1499999999999999
984.686 0.18999999999999995
984.969 0.11332999999999993
985.251 0.2200000000000002
985.532 0.14500000000000002
985.815 0.1683300000000001
986.098 0.20500000000000007
986.38 0.2066699999999999
986.663 0.16500000000000004
986.946 0.18999999999999995
987.228 0.16500000000000004
987.511 0.13667000000000007
987.794 0.19499999999999984
988.076 0.18167
988.357 0.20833000000000013
988.639 0.16166999999999998
988.922 0.18167
989.205 0.18000000000000016
989.487 0.13332999999999995
989.77 0.19167000000000023
990.052 0.13332999999999995
990.335 0.1766700000000001
990.616 0.17832999999999988
990.898 0.2200000000000002
991.181 0.1716700000000002
991.463 0.18000000000000016
991.746 0.2200000000000002
992.028 0.20500000000000007
992.311 0.24167000000000005
992.591 0.15332999999999997
992.874 0.22999999999999998
993.156 0.21667000000000014
993.439 0.17832999999999988
993.721 0.1883300000000001
994.003 0.19167000000000023
994.284 0.17332999999999998
994.566 0.14500000000000002
994.849 0.2066699999999999
995.131 0.1716700000000002
995.414 0.16500000000000004
995.696 0.19333
995.976 0.18167
996.259 0.26000000000000023
996.541 0.1683300000000001
996.823 0.1766700000000001
997.106 0.22666999999999993
997.386 0.17500000000000027
997.669 0.17332999999999998
997.951 0.19667000000000012
998.233 0.1516700000000002
998.516 0.22666999999999993
998.796 0.19167000000000023
999.078 0.19167000000000023
999.36 0.1983299999999999
999.643 0.1516700000000002
999.923 0.1883300000000001
1000.21 0.22999999999999998
1000.49 0.17500000000000027
1000.77 0.18500000000000005
1001.05 0.17832999999999988
1001.33 0.19667000000000012
1001.61 0.21499999999999986
1001.9 0.19667000000000012
1002.18 0.23167000000000026
1002.46 0.20500000000000007
1002.74 0.1566700000000001
1003.02 0.18333000000000022
1003.3 0.18500000000000005
1003.59 0.1499999999999999
1003.87 0.22333000000000025
1004.15 0.16999999999999993
1004.43 0.2066699999999999
1004.71 0.18333000000000022
1004.99 0.23832999999999993
1005.28 0.2450000000000001
1005.56 0.20833000000000013
1005.84 0.16166999999999998
1006.12 0.20167000000000002
1006.4 0.2683300000000002
1006.68 0.13832999999999984
1006.96 0.1883300000000001
1007.24 0.2183299999999999
1007.53 0.1883300000000001
1007.81 0.20999999999999996
1008.09 0.2066699999999999
1008.37 0.1716700000000002
1008.65 0.19333
1008.93 0.2183299999999999
1009.21 0.18000000000000016
1009.5 0.15500000000000025
1009.78 0.1766700000000001
1010.06 0.20000000000000018
1010.34 0.1766700000000001
1010.62 0.22666999999999993
1010.9 0.18500000000000005
1011.18 0.21667000000000014
1011.47 0.22167000000000003
1011.75 0.20333000000000023
1012.03 0.20500000000000007
1012.31 0.22167000000000003
1012.59 0.19667000000000012
1012.87 0.18333000000000022
1013.15 0.19333
1013.43 0.19499999999999984
1013.72 0.18167
1014.0 0.1866699999999999
1014.28 0.14833000000000007
1014.56 0.19667000000000012
1014.84 0.18167
1015.12 0.23333000000000004
1015.4 0.16999999999999993
1015.68 0.20500000000000007
1015.96 0.22833000000000014
1016.24 0.22833000000000014
1016.53 0.19667000000000012
1016.81 0.19499999999999984
1017.09 0.2250000000000001
1017.37 0.18333000000000022
1017.65 0.20000000000000018
1017.93 0.25333000000000006
1018.21 0.16666999999999987
1018.49 0.2450000000000001
1018.77 0.20167000000000002
1019.05 0.20500000000000007
1019.33 0.22666999999999993
1019.61 0.21499999999999986
1019.9 0.19499999999999984
1020.18 0.19499999999999984
1020.46 0.21499999999999986
1020.74 0.16500000000000004
1021.02 0.1766700000000001
1021.3 0.20500000000000007
1021.58 0.18167
1021.86 0.21167000000000025
1022.14 0.2250000000000001
1022.42 0.21333000000000002
1022.7 0.21499999999999986
1022.98 0.18500000000000005
1023.26 0.20999999999999996
1023.54 0.22999999999999998
1023.83 0.18333000000000022
1024.11 0.19333
1024.39 0.2200000000000002
1024.67 0.2200000000000002
1024.95 0.18999999999999995
1025.23 0.16666999999999987
1025.51 0.19333
1025.79 0.25333000000000006
1026.07 0.22333000000000025
1026.35 0.20500000000000007
1026.63 0.20500000000000007
1026.91 0.19667000000000012
1027.19 0.20500000000000007
1027.47 0.1866699999999999
1027.75 0.22666999999999993
1028.03 0.24167000000000005
1028.31 0.24167000000000005
1028.59 0.21333000000000002
1028.87 0.18999999999999995
1029.15 0.21667000000000014
1029.43 0.20167000000000002
1029.71 0.20167000000000002
1030.0 0.27832999999999997
1030.27 0.20999999999999996
1030.56 0.22833000000000014
1030.84 0.1716700000000002
1031.12 0.19333
1031.4 0.22167000000000003
1031.68 0.17832999999999988
1031.96 0.18000000000000016
1032.24 0.26332999999999984
1032.52 0.22167000000000003
1032.8 0.2733300000000001
1033.08 0.23832999999999993
1033.36 0.22333000000000025
1033.64 0.2250000000000001
1033.92 0.16999999999999993
1034.2 0.23667000000000016
1034.48 0.20833000000000013
1034.76 0.23499999999999988
1035.04 0.19167000000000023
1035.32 0.25832999999999995
1035.6 0.1883300000000001
1035.88 0.2400000000000002
1036.16 0.14500000000000002
1036.44 0.16666999999999987
1036.72 0.22167000000000003
1037.0 0.20833000000000013
1037.28 0.2200000000000002
1037.56 0.18000000000000016
1037.84 0.24167000000000005
1038.12 0.22333000000000025
1038.4 0.24333000000000027
1038.68 0.24666999999999994
1038.96 0.21333000000000002
1039.24 0.21499999999999986
1039.52 0.24666999999999994
1039.79 0.2250000000000001
1040.08 0.26332999999999984
1040.35 0.26000000000000023
1040.64 0.22666999999999993
1040.91 0.22833000000000014
1041.19 0.20500000000000007
1041.47 0.21167000000000025
1041.75 0.18500000000000005
1042.03 0.23333000000000004
1042.31 0.2400000000000002
1042.59 0.2566700000000002
1042.87 0.22999999999999998
1043.15 0.26666999999999996
1043.43 0.19499999999999984
1043.71 0.20333000000000023
1043.99 0.22666999999999993
1044.27 0.25333000000000006
1044.55 0.14666999999999986
1044.83 0.24833000000000016
1045.11 0.23167000000000026
1045.39 0.2450000000000001
1045.67 0.21333000000000002
1045.95 0.20333000000000023
1046.23 0.21333000000000002
1046.51 0.21167000000000025
1046.79 0.23499999999999988
1047.06 0.20999999999999996
1047.34 0.23832999999999993
1047.62 0.19667000000000012
1047.9 0.2183299999999999
1048.18 0.22167000000000003
1048.46 0.24167000000000005
1048.74 0.21499999999999986
1049.02 0.23667000000000016
1049.3 0.25832999999999995
1049.58 0.1983299999999999
1049.86 0.20833000000000013
1050.14 0.26000000000000023
1050.42 0.19667000000000012
1050.7 0.25333000000000006
1050.97 0.26666999999999996
1051.25 0.20333000000000023
1051.53 0.2066699999999999
1051.81 0.20167000000000002
1052.09 0.22333000000000025
1052.37 0.25333000000000006
1052.65 0.2250000000000001
1052.93 0.2549999999999999
1053.21 0.25333000000000006
1053.49 0.25832999999999995
1053.77 0.23499999999999988
1054.05 0.2450000000000001
1054.32 0.25166999999999984
1054.6 0.22999999999999998
1054.88 0.27832999999999997
1055.16 0.20833000000000013
1055.44 0.23832999999999993
1055.72 0.24666999999999994
1056.0 0.23667000000000016
1056.28 0.23499999999999988
1056.56 0.2400000000000002
1056.84 0.22833000000000014
1057.11 0.27166999999999986
1057.39 0.2549999999999999
1057.67 0.21667000000000014
1057.95 0.2200000000000002
1058.23 0.20999999999999996
1058.51 0.2566700000000002
1058.79 0.25832999999999995
1059.07 0.2766700000000002
1059.34 0.2250000000000001
1059.62 0.22167000000000003
1059.9 0.22666999999999993
1060.18 0.2450000000000001
1060.46 0.24167000000000005
1060.74 0.18333000000000022
1061.02 0.23333000000000004
1061.3 0.27166999999999986
1061.57 0.2749999999999999
1061.85 0.23667000000000016
1062.13 0.22833000000000014
1062.41 0.2200000000000002
1062.69 0.2683300000000002
1062.97 0.2766700000000002
1063.25 0.19499999999999984
1063.53 0.25832999999999995
1063.8 0.27832999999999997
1064.08 0.22833000000000014
1064.36 0.27166999999999986
1064.64 0.1866699999999999
1064.92 0.2766700000000002
1065.2 0.31999999999999984
1065.47 0.2766700000000002
1065.75 0.29499999999999993
1066.03 0.22666999999999993
1066.31 0.2400000000000002
1066.59 0.26332999999999984
1066.87 0.27166999999999986
1067.14 0.27166999999999986
1067.42 0.20999999999999996
1067.7 0.2400000000000002
1067.98 0.2450000000000001
1068.26 0.26000000000000023
1068.54 0.27
1068.82 0.2733300000000001
1069.09 0.23333000000000004
1069.37 0.23499999999999988
1069.65 0.2549999999999999
1069.93 0.30500000000000016
1070.21 0.28332999999999986
1070.48 0.23667000000000016
1070.76 0.25166999999999984
1071.04 0.28500000000000014
1071.32 0.2766700000000002
1071.6 0.28000000000000025
1071.87 0.21667000000000014
1072.15 0.26000000000000023
1072.43 0.2450000000000001
1072.71 0.23333000000000004
1072.99 0.24333000000000027
1073.26 0.22999999999999998
1073.54 0.28332999999999986
1073.82 0.22333000000000025
1074.1 0.22333000000000025
1074.38 0.24666999999999994
1074.65 0.31833
1074.93 0.25832999999999995
1075.21 0.20500000000000007
1075.49 0.2816700000000001
1075.77 0.2766700000000002
1076.05 0.2816700000000001
1076.32 0.20500000000000007
1076.6 0.25832999999999995
1076.88 0.2650000000000001
1077.16 0.25333000000000006
1077.43 0.2517572211887664
1077.71 0.251797175286399
1077.99 0.25160458573360467
1078.27 0.25163830169596846
1078.55 0.25139960351986756
1078.82 0.25333000000000006
1079.1 0.23499999999999988
1079.38 0.28500000000000014
1079.66 0.24167000000000005
1079.93 0.2250000000000001
1080.21 0.27
1080.49 0.24333000000000027
1080.77 0.25166999999999984
1081.05 0.3133300000000001
1081.32 0.2400000000000002
1081.6 0.2183299999999999
1081.88 0.28000000000000025
1082.16 0.2733300000000001
1082.43 0.26332999999999984
1082.71 0.24833000000000016
1082.99 0.26332999999999984
1083.27 0.20167000000000002
1083.54 0.27
1083.82 0.24666999999999994
1084.1 0.30500000000000016
1084.38 0.26666999999999996
1084.65 0.2883300000000002
1084.93 0.30000000000000027
1085.21 0.21667000000000014
1085.49 0.24333000000000027
1085.76 0.2966700000000002
1086.04 0.28500000000000014
1086.32 0.22999999999999998
1086.6 0.2683300000000002
1086.87 0.21499999999999986
1087.15 0.30667
1087.43 0.29000000000000004
1087.71 0.23499999999999988
1087.98 0.2549999999999999
1088.26 0.24666999999999994
1088.54 0.28667
1088.81 0.18167
1089.09 0.23499999999999988
1089.37 0.25
1089.65 0.23333000000000004
1089.92 0.23499999999999988
1090.2 0.23832999999999993
1090.48 0.28332999999999986
1090.75 0.24167000000000005
1091.03 0.2933300000000001
