# rshift,intensity
53.700584,0.057430
54.002575,0.057432
54.304566,0.057433
54.606557,0.057435
54.908549,0.057436
55.210540,0.057438
55.512531,0.057440
55.814523,0.057441
56.116514,0.057443
56.418505,0.057444
56.720496,0.057446
57.022488,0.057448
57.324479,0.057449
57.626470,0.057451
57.928461,0.057452
58.230453,0.057454
58.532444,0.057456
58.834435,0.057457
59.136427,0.057459
59.438418,0.057461
59.740409,0.057462
60.042400,0.057464
60.344392,0.057466
60.646383,0.057467
60.948374,0.057469
61.250365,0.057471
61.552357,0.057472
61.854348,0.057474
62.156339,0.057476
62.458330,0.057477
62.760322,0.057479
63.062313,0.057481
63.364304,0.057482
63.666296,0.057484
63.968287,0.057486
64.270278,0.057487
64.572269,0.057489
64.874261,0.057491
65.176252,0.057492
65.478243,0.057494
65.780234,0.057496
66.082226,0.057498
66.384217,0.057499
66.686208,0.057501
66.988199,0.057503
67.290191,0.057505
67.592182,0.057506
67.894173,0.057508
68.196165,0.057510
68.498156,0.057512
68.800147,0.057513
69.102138,0.057515
69.404130,0.057517
69.706121,0.057519
70.008112,0.057520
70.310103,0.057522
70.612095,0.057524
70.914086,0.057526
71.216077,0.057528
71.518068,0.057529
71.820060,0.057531
72.122051,0.057533
72.424042,0.057535
72.726034,0.057537
73.028025,0.057538
73.330016,0.057540
73.632007,0.057542
73.933999,0.057544
74.235990,0.057546
74.537981,0.057548
74.839972,0.057550
75.141964,0.057551
75.443955,0.057553
75.745946,0.057555
76.047938,0.057557
76.349929,0.057559
76.651920,0.057561
76.953911,0.057563
77.255903,0.057564
77.557894,0.057566
77.859885,0.057568
78.161876,0.057570
78.463868,0.057572
78.765859,0.057574
79.067850,0.057576
79.369841,0.057578
79.671833,0.057580
79.973824,0.057582
80.275815,0.057584
80.577807,0.057586
80.879798,0.057588
81.181789,0.057589
81.483780,0.057591
81.785772,0.057593
82.087763,0.057595
82.389754,0.057597
82.691745,0.057599
82.993737,0.057601
83.295728,0.057603
83.597719,0.057605
83.899710,0.057607
84.201702,0.057609
84.503693,0.057611
84.805684,0.057613
85.107676,0.057615
85.409667,0.057617
85.711658,0.057619
86.013649,0.057621
86.315641,0.057623
86.617632,0.057625
86.919623,0.057627
87.221614,0.057630
87.523606,0.057632
87.825597,0.057634
88.127588,0.057636
88.429579,0.057638
88.731571,0.057640
89.033562,0.057642
89.335553,0.057644
89.637545,0.057646
89.939536,0.057648
90.241527,0.057650
90.543518,0.057652
90.845510,0.057655
91.147501,0.057657
91.449492,0.057659
91.751483,0.057661
92.053475,0.057663
92.355466,0.057665
92.657457,0.057667
92.959449,0.057670
93.261440,0.057672
93.563431,0.057674
93.865422,0.057676
94.167414,0.057678
94.469405,0.057680
94.771396,0.057683
95.073387,0.057685
95.375379,0.057687
95.677370,0.057689
95.979361,0.057691
96.281352,0.057694
96.583344,0.057696
96.885335,0.057698
97.187326,0.057700
97.489318,0.057703
97.791309,0.057705
98.093300,0.057707
98.395291,0.057709
98.697283,0.057712
98.999274,0.057714
99.301265,0.057716
99.603256,0.057718
99.905248,0.057721
100.207239,0.057723
100.509230,0.057725
100.811221,0.057728
101.113213,0.057730
101.415204,0.057732
101.717195,0.057734
102.019187,0.057737
102.321178,0.057739
102.623169,0.057741
102.925160,0.057744
103.227152,0.057746
103.529143,0.057749
103.831134,0.057751
104.133125,0.057753
104.435117,0.057756
104.737108,0.057758
105.039099,0.057760
105.341090,0.057763
105.643082,0.057765
105.945073,0.057768
106.247064,0.057770
106.549056,0.057773
106.851047,0.057775
107.153038,0.057777
107.455029,0.057780
107.757021,0.057782
108.059012,0.057785
108.361003,0.057787
108.662994,0.057790
108.964986,0.057792
109.266977,0.057795
109.568968,0.057797
109.870960,0.057800
110.172951,0.057802
110.474942,0.057805
110.776933,0.057807
111.078925,0.057810
111.380916,0.057812
111.682907,0.057815
111.984898,0.057817
112.286890,0.057820
112.588881,0.057822
112.890872,0.057825
113.192863,0.057828
113.494855,0.057830
113.796846,0.057833
114.098837,0.057835
114.400829,0.057838
114.702820,0.057841
115.004811,0.057843
115.306802,0.057846
115.608794,0.057848
115.910785,0.057851
116.212776,0.057854
116.514767,0.057856
116.816759,0.057859
117.118750,0.057862
117.420741,0.057864
117.722732,0.057867
118.024724,0.057870
118.326715,0.057873
118.628706,0.057875
118.930698,0.057878
119.232689,0.057881
119.534680,0.057883
119.836671,0.057886
120.138663,0.057889
120.440654,0.057892
120.742645,0.057894
121.044636,0.057897
121.346628,0.057900
121.648619,0.057903
121.950610,0.057906
122.252601,0.057908
122.554593,0.057911
122.856584,0.057914
123.158575,0.057917
123.460567,0.057920
123.762558,0.057922
124.064549,0.057925
124.366540,0.057928
124.668532,0.057931
124.970523,0.057934
125.272514,0.057937
125.574505,0.057940
125.876497,0.057943
126.178488,0.057946
126.480479,0.057948
126.782470,0.057951
127.084462,0.057954
127.386453,0.057957
127.688444,0.057960
127.990436,0.057963
128.292427,0.057966
128.594418,0.057969
128.896409,0.057972
129.198401,0.057975
129.500392,0.057978
129.802383,0.057981
130.104374,0.057984
130.406366,0.057987
130.708357,0.057990
131.010348,0.057993
131.312340,0.057996
131.614331,0.057999
131.916322,0.058002
132.218313,0.058005
132.520305,0.058009
132.822296,0.058012
133.124287,0.058015
133.426278,0.058018
133.728270,0.058021
134.030261,0.058024
134.332252,0.058027
134.634243,0.058030
134.936235,0.058034
135.238226,0.058037
135.540217,0.058040
135.842209,0.058043
136.144200,0.058046
136.446191,0.058050
136.748182,0.058053
137.050174,0.058056
137.352165,0.058059
137.654156,0.058063
137.956147,0.058066
138.258139,0.058069
138.560130,0.058072
138.862121,0.058076
139.164112,0.058079
139.466104,0.058082
139.768095,0.058086
140.070086,0.058089
140.372078,0.058092
140.674069,0.058096
140.976060,0.058099
141.278051,0.058102
141.580043,0.058106
141.882034,0.058109
142.184025,0.058112
142.486016,0.058116
142.788008,0.058119
143.089999,0.058123
143.391990,0.058126
143.693981,0.058130
143.995973,0.058133
144.297964,0.058137
144.599955,0.058140
144.901947,0.058144
145.203938,0.058147
145.505929,0.058151
145.807920,0.058154
146.109912,0.058158
146.411903,0.058161
146.713894,0.058165
147.015885,0.058168
147.317877,0.058172
147.619868,0.058176
147.921859,0.058179
148.223851,0.058183
148.525842,0.058186
148.827833,0.058190
149.129824,0.058194
149.431816,0.058197
149.733807,0.058201
150.035798,0.058205
150.337789,0.058208
150.639781,0.058212
150.941772,0.058216
151.243763,0.058220
151.545754,0.058223
151.847746,0.058227
152.149737,0.058231
152.451728,0.058235
152.753720,0.058238
153.055711,0.058242
153.357702,0.058246
153.659693,0.058250
153.961685,0.058254
154.263676,0.058257
154.565667,0.058261
154.867658,0.058265
155.169650,0.058269
155.471641,0.058273
155.773632,0.058277
156.075623,0.058281
156.377615,0.058285
156.679606,0.058289
156.981597,0.058293
157.283589,0.058297
157.585580,0.058301
157.887571,0.058305
158.189562,0.058309
158.491554,0.058313
158.793545,0.058317
159.095536,0.058321
159.397527,0.058325
159.699519,0.058329
160.001510,0.058333
160.303501,0.058337
160.605492,0.058341
160.907484,0.058345
161.209475,0.058349
161.511466,0.058354
161.813458,0.058358
162.115449,0.058362
162.417440,0.058366
162.719431,0.058370
163.021423,0.058375
163.323414,0.058379
163.625405,0.058383
163.927396,0.058387
164.229388,0.058392
164.531379,0.058396
164.833370,0.058400
165.135362,0.058405
165.437353,0.058409
165.739344,0.058413
166.041335,0.058418
166.343327,0.058422
166.645318,0.058426
166.947309,0.058431
167.249300,0.058435
167.551292,0.058440
167.853283,0.058444
168.155274,0.058449
168.457265,0.058453
168.759257,0.058458
169.061248,0.058462
169.363239,0.058467
169.665231,0.058471
169.967222,0.058476
170.269213,0.058480
170.571204,0.058485
170.873196,0.058490
171.175187,0.058494
171.477178,0.058499
171.779169,0.058503
172.081161,0.058508
172.383152,0.058513
172.685143,0.058517
172.987134,0.058522
173.289126,0.058527
173.591117,0.058532
173.893108,0.058536
174.195100,0.058541
174.497091,0.058546
174.799082,0.058551
175.101073,0.058556
175.403065,0.058561
175.705056,0.058565
176.007047,0.058570
176.309038,0.058575
176.611030,0.058580
176.913021,0.058585
177.215012,0.058590
177.517003,0.058595
177.818995,0.058600
178.120986,0.058605
178.422977,0.058610
178.724969,0.058615
179.026960,0.058620
179.328951,0.058625
179.630942,0.058630
179.932934,0.058635
180.234925,0.058640
180.536916,0.058646
180.838907,0.058651
181.140899,0.058656
181.442890,0.058661
181.744881,0.058666
182.046872,0.058672
182.348864,0.058677
182.650855,0.058682
182.952846,0.058687
183.254838,0.058693
183.556829,0.058698
183.858820,0.058703
184.160811,0.058709
184.462803,0.058714
184.764794,0.058719
185.066785,0.058725
185.368776,0.058730
185.670768,0.058736
185.972759,0.058741
186.274750,0.058747
186.576742,0.058752
186.878733,0.058758
187.180724,0.058763
187.482715,0.058769
187.784707,0.058775
188.086698,0.058780
188.388689,0.058786
188.690680,0.058791
188.992672,0.058797
189.294663,0.058803
189.596654,0.058809
189.898645,0.058814
190.200637,0.058820
190.502628,0.058826
190.804619,0.058832
191.106611,0.058837
191.408602,0.058843
191.710593,0.058849
192.012584,0.058855
192.314576,0.058861
192.616567,0.058867
192.918558,0.058873
193.220549,0.058879
193.522541,0.058885
193.824532,0.058891
194.126523,0.058897
194.428514,0.058903
194.730506,0.058909
195.032497,0.058915
195.334488,0.058921
195.636480,0.058927
195.938471,0.058934
196.240462,0.058940
196.542453,0.058946
196.844445,0.058952
197.146436,0.058959
197.448427,0.058965
197.750418,0.058971
198.052410,0.058978
198.354401,0.058984
198.656392,0.058990
198.958383,0.058997
199.260375,0.059003
199.562366,0.059010
199.864357,0.059016
200.166349,0.059023
200.468340,0.059029
200.770331,0.059036
201.072322,0.059042
201.374314,0.059049
201.676305,0.059056
201.978296,0.059062
202.280287,0.059069
202.582279,0.059076
202.884270,0.059082
203.186261,0.059089
203.488253,0.059096
203.790244,0.059103
204.092235,0.059110
204.394226,0.059116
204.696218,0.059123
204.998209,0.059130
205.300200,0.059137
205.602191,0.059144
205.904183,0.059151
206.206174,0.059158
206.508165,0.059165
206.810156,0.059172
207.112148,0.059180
207.414139,0.059187
207.716130,0.059194
208.018122,0.059201
208.320113,0.059208
208.622104,0.059216
208.924095,0.059223
209.226087,0.059230
209.528078,0.059237
209.830069,0.059245
210.132060,0.059252
210.434052,0.059260
210.736043,0.059267
211.038034,0.059275
211.340025,0.059282
211.642017,0.059290
211.944008,0.059297
212.245999,0.059305
212.547991,0.059313
212.849982,0.059320
213.151973,0.059328
213.453964,0.059336
213.755956,0.059343
214.057947,0.059351
214.359938,0.059359
214.661929,0.059367
214.963921,0.059375
215.265912,0.059383
215.567903,0.059391
215.869894,0.059399
216.171886,0.059407
216.473877,0.059415
216.775868,0.059423
217.077860,0.059431
217.379851,0.059439
217.681842,0.059447
217.983833,0.059456
218.285825,0.059464
218.587816,0.059472
218.889807,0.059480
219.191798,0.059489
219.493790,0.059497
219.795781,0.059506
220.097772,0.059514
220.399764,0.059523
220.701755,0.059531
221.003746,0.059540
221.305737,0.059548
221.607729,0.059557
221.909720,0.059566
222.211711,0.059574
222.513702,0.059583
222.815694,0.059592
223.117685,0.059601
223.419676,0.059610
223.721667,0.059618
224.023659,0.059627
224.325650,0.059636
224.627641,0.059645
224.929633,0.059654
225.231624,0.059663
225.533615,0.059673
225.835606,0.059682
226.137598,0.059691
226.439589,0.059700
226.741580,0.059710
227.043571,0.059719
227.345563,0.059728
227.647554,0.059738
227.949545,0.059747
228.251536,0.059757
228.553528,0.059766
228.855519,0.059776
229.157510,0.059785
229.459502,0.059795
229.761493,0.059805
230.063484,0.059814
230.365475,0.059824
230.667467,0.059834
230.969458,0.059844
231.271449,0.059854
231.573440,0.059864
231.875432,0.059874
232.177423,0.059884
232.479414,0.059894
232.781405,0.059904
233.083397,0.059914
233.385388,0.059924
233.687379,0.059935
233.989371,0.059945
234.291362,0.059955
234.593353,0.059966
234.895344,0.059976
235.197336,0.059987
235.499327,0.059997
235.801318,0.060008
236.103309,0.060018
236.405301,0.060029
236.707292,0.060040
237.009283,0.060051
237.311275,0.060061
237.613266,0.060072
237.915257,0.060083
238.217248,0.060094
238.519240,0.060105
238.821231,0.060116
239.123222,0.060127
239.425213,0.060139
239.727205,0.060150
240.029196,0.060161
240.331187,0.060172
240.633178,0.060184
240.935170,0.060195
241.237161,0.060207
241.539152,0.060218
241.841144,0.060230
242.143135,0.060242
242.445126,0.060253
242.747117,0.060265
243.049109,0.060277
243.351100,0.060289
243.653091,0.060301
243.955082,0.060313
244.257074,0.060325
244.559065,0.060337
244.861056,0.060349
245.163047,0.060361
245.465039,0.060373
245.767030,0.060386
246.069021,0.060398
246.371013,0.060411
246.673004,0.060423
246.974995,0.060436
247.276986,0.060448
247.578978,0.060461
247.880969,0.060474
248.182960,0.060487
248.484951,0.060499
248.786943,0.060512
249.088934,0.060525
249.390925,0.060538
249.692916,0.060552
249.994908,0.060565
250.296899,0.060578
250.598890,0.060591
250.900882,0.060605
251.202873,0.060618
251.504864,0.060632
251.806855,0.060645
252.108847,0.060659
252.410838,0.060673
252.712829,0.060686
253.014820,0.060700
253.316812,0.060714
253.618803,0.060728
253.920794,0.060742
254.222785,0.060756
254.524777,0.060770
254.826768,0.060785
255.128759,0.060799
255.430751,0.060813
255.732742,0.060828
256.034733,0.060842
256.336724,0.060857
256.638716,0.060872
256.940707,0.060886
257.242698,0.060901
257.544689,0.060916
257.846681,0.060931
258.148672,0.060946
258.450663,0.060961
258.752655,0.060977
259.054646,0.060992
259.356637,0.061007
259.658628,0.061023
259.960620,0.061038
260.262611,0.061054
260.564602,0.061070
260.866593,0.061085
261.168585,0.061101
261.470576,0.061117
261.772567,0.061133
262.074558,0.061149
262.376550,0.061165
262.678541,0.061182
262.980532,0.061198
263.282524,0.061215
263.584515,0.061231
263.886506,0.061248
264.188497,0.061264
264.490489,0.061281
264.792480,0.061298
265.094471,0.061315
265.396462,0.061332
265.698454,0.061349
266.000445,0.061366
266.302436,0.061384
266.604427,0.061401
266.906419,0.061419
267.208410,0.061436
267.510401,0.061454
267.812393,0.061472
268.114384,0.061490
268.416375,0.061508
268.718366,0.061526
269.020358,0.061544
269.322349,0.061562
269.624340,0.061581
269.926331,0.061599
270.228323,0.061618
270.530314,0.061636
270.832305,0.061655
271.134296,0.061674
271.436288,0.061693
271.738279,0.061712
272.040270,0.061731
272.342262,0.061751
272.644253,0.061770
272.946244,0.061790
273.248235,0.061809
273.550227,0.061829
273.852218,0.061849
274.154209,0.061869
274.456200,0.061889
274.758192,0.061909
275.060183,0.061929
275.362174,0.061950
275.664166,0.061970
275.966157,0.061991
276.268148,0.062012
276.570139,0.062033
276.872131,0.062054
277.174122,0.062075
277.476113,0.062096
277.778104,0.062117
278.080096,0.062139
278.382087,0.062161
278.684078,0.062182
278.986069,0.062204
279.288061,0.062226
279.590052,0.062248
279.892043,0.062271
280.194035,0.062293
280.496026,0.062315
280.798017,0.062338
281.100008,0.062361
281.402000,0.062384
281.703991,0.062407
282.005982,0.062430
282.307973,0.062453
282.609965,0.062477
282.911956,0.062500
283.213947,0.062524
283.515938,0.062548
283.817930,0.062572
284.119921,0.062596
284.421912,0.062620
284.723904,0.062645
285.025895,0.062669
285.327886,0.062694
285.629877,0.062719
285.931869,0.062744
286.233860,0.062769
286.535851,0.062795
286.837842,0.062820
287.139834,0.062846
287.441825,0.062871
287.743816,0.062897
288.045807,0.062924
288.347799,0.062950
288.649790,0.062976
288.951781,0.063003
289.253773,0.063030
289.555764,0.063057
289.857755,0.063084
290.159746,0.063111
290.461738,0.063138
290.763729,0.063166
291.065720,0.063194
291.367711,0.063222
291.669703,0.063250
291.971694,0.063278
292.273685,0.063307
292.575677,0.063335
292.877668,0.063364
293.179659,0.063393
293.481650,0.063423
293.783642,0.063452
294.085633,0.063482
294.387624,0.063511
294.689615,0.063541
294.991607,0.063572
295.293598,0.063602
295.595589,0.063632
295.897580,0.063663
296.199572,0.063694
296.501563,0.063725
296.803554,0.063757
297.105546,0.063788
297.407537,0.063820
297.709528,0.063852
298.011519,0.063884
298.313511,0.063917
298.615502,0.063949
298.917493,0.063982
299.219484,0.064015
299.521476,0.064049
299.823467,0.064082
300.125458,0.064116
300.427449,0.064150
300.729441,0.064184
301.031432,0.064218
301.333423,0.064253
301.635415,0.064288
301.937406,0.064323
302.239397,0.064358
302.541388,0.064394
302.843380,0.064430
303.145371,0.064466
303.447362,0.064502
303.749353,0.064539
304.051345,0.064576
304.353336,0.064613
304.655327,0.064650
304.957318,0.064688
305.259310,0.064726
305.561301,0.064764
305.863292,0.064802
306.165284,0.064841
306.467275,0.064880
306.769266,0.064919
307.071257,0.064959
307.373249,0.064998
307.675240,0.065039
307.977231,0.065079
308.279222,0.065120
308.581214,0.065160
308.883205,0.065202
309.185196,0.065243
309.487187,0.065285
309.789179,0.065327
310.091170,0.065370
310.393161,0.065412
310.695153,0.065455
310.997144,0.065499
311.299135,0.065542
311.601126,0.065586
311.903118,0.065631
312.205109,0.065675
312.507100,0.065720
312.809091,0.065766
313.111083,0.065811
313.413074,0.065857
313.715065,0.065904
314.017057,0.065950
314.319048,0.065997
314.621039,0.066045
314.923030,0.066093
315.225022,0.066141
315.527013,0.066189
315.829004,0.066238
316.130995,0.066287
316.432987,0.066337
316.734978,0.066387
317.036969,0.066437
317.338960,0.066488
317.640952,0.066539
317.942943,0.066591
318.244934,0.066643
318.546926,0.066695
318.848917,0.066748
319.150908,0.066801
319.452899,0.066854
319.754891,0.066908
320.056882,0.066963
320.358873,0.067018
320.660864,0.067073
320.962856,0.067129
321.264847,0.067185
321.566838,0.067241
321.868829,0.067299
322.170821,0.067356
322.472812,0.067414
322.774803,0.067473
323.076795,0.067531
323.378786,0.067591
323.680777,0.067651
323.982768,0.067711
324.284760,0.067772
324.586751,0.067833
324.888742,0.067895
325.190733,0.067958
325.492725,0.068021
325.794716,0.068084
326.096707,0.068148
326.398698,0.068213
326.700690,0.068278
327.002681,0.068343
327.304672,0.068410
327.606664,0.068476
327.908655,0.068544
328.210646,0.068611
328.512637,0.068680
328.814629,0.068749
329.116620,0.068819
329.418611,0.068889
329.720602,0.068960
330.022594,0.069031
330.324585,0.069103
330.626576,0.069176
330.928568,0.069249
331.230559,0.069323
331.532550,0.069398
331.834541,0.069473
332.136533,0.069549
332.438524,0.069625
332.740515,0.069703
333.042506,0.069781
333.344498,0.069859
333.646489,0.069939
333.948480,0.070019
334.250471,0.070100
334.552463,0.070181
334.854454,0.070264
335.156445,0.070347
335.458437,0.070431
335.760428,0.070515
336.062419,0.070600
336.364410,0.070687
336.666402,0.070774
336.968393,0.070861
337.270384,0.070950
337.572375,0.071039
337.874367,0.071130
338.176358,0.071221
338.478349,0.071313
338.780340,0.071405
339.082332,0.071499
339.384323,0.071594
339.686314,0.071689
339.988306,0.071786
340.290297,0.071883
340.592288,0.071981
340.894279,0.072081
341.196271,0.072181
341.498262,0.072282
341.800253,0.072384
342.102244,0.072487
342.404236,0.072591
342.706227,0.072697
343.008218,0.072803
343.310209,0.072910
343.612201,0.073019
343.914192,0.073128
344.216183,0.073239
344.518175,0.073350
344.820166,0.073463
345.122157,0.073577
345.424148,0.073692
345.726140,0.073809
346.028131,0.073926
346.330122,0.074045
346.632113,0.074165
346.934105,0.074286
347.236096,0.074408
347.538087,0.074532
347.840079,0.074657
348.142070,0.074783
348.444061,0.074911
348.746052,0.075040
349.048044,0.075171
349.350035,0.075302
349.652026,0.075436
349.954017,0.075570
350.256009,0.075706
350.558000,0.075844
350.859991,0.075983
351.161982,0.076123
351.463974,0.076265
351.765965,0.076409
352.067956,0.076554
352.369948,0.076701
352.671939,0.076850
352.973930,0.077000
353.275921,0.077152
353.577913,0.077305
353.879904,0.077460
354.181895,0.077617
354.483886,0.077776
354.785878,0.077937
355.087869,0.078099
355.389860,0.078264
355.691851,0.078430
355.993843,0.078598
356.295834,0.078768
356.597825,0.078940
356.899817,0.079114
357.201808,0.079290
357.503799,0.079468
357.805790,0.079649
358.107782,0.079831
358.409773,0.080016
358.711764,0.080203
359.013755,0.080392
359.315747,0.080583
359.617738,0.080777
359.919729,0.080973
360.221720,0.081171
360.523712,0.081372
360.825703,0.081576
361.127694,0.081782
361.429686,0.081990
361.731677,0.082201
362.033668,0.082415
362.335659,0.082631
362.637651,0.082850
362.939642,0.083072
363.241633,0.083297
363.543624,0.083525
363.845616,0.083755
364.147607,0.083989
364.449598,0.084226
364.751589,0.084465
365.053581,0.084708
365.355572,0.084954
365.657563,0.085203
365.959555,0.085456
366.261546,0.085712
366.563537,0.085971
366.865528,0.086234
367.167520,0.086500
367.469511,0.086770
367.771502,0.087044
368.073493,0.087321
368.375485,0.087603
368.677476,0.087888
368.979467,0.088177
369.281459,0.088470
369.583450,0.088767
369.885441,0.089069
370.187432,0.089374
370.489424,0.089684
370.791415,0.089999
371.093406,0.090317
371.395397,0.090641
371.697389,0.090969
371.999380,0.091302
372.301371,0.091640
372.603362,0.091983
372.905354,0.092330
373.207345,0.092683
373.509336,0.093041
373.811328,0.093405
374.113319,0.093774
374.415310,0.094149
374.717301,0.094529
375.019293,0.094915
375.321284,0.095307
375.623275,0.095705
375.925266,0.096109
376.227258,0.096519
376.529249,0.096936
376.831240,0.097360
377.133231,0.097790
377.435223,0.098227
377.737214,0.098671
378.039205,0.099122
378.341197,0.099580
378.643188,0.100046
378.945179,0.100519
379.247170,0.101000
379.549162,0.101489
379.851153,0.101986
380.153144,0.102491
380.455135,0.103005
380.757127,0.103527
381.059118,0.104059
381.361109,0.104599
381.663100,0.105148
381.965092,0.105707
382.267083,0.106276
382.569074,0.106854
382.871066,0.107443
383.173057,0.108042
383.475048,0.108651
383.777039,0.109272
384.079031,0.109903
384.381022,0.110546
384.683013,0.111200
384.985004,0.111866
385.286996,0.112544
385.588987,0.113235
385.890978,0.113939
386.192970,0.114655
386.494961,0.115385
386.796952,0.116129
387.098943,0.116887
387.400935,0.117659
387.702926,0.118446
388.004917,0.119248
388.306908,0.120066
388.608900,0.120899
388.910891,0.121749
389.212882,0.122616
389.514873,0.123499
389.816865,0.124401
390.118856,0.125320
390.420847,0.126258
390.722839,0.127215
391.024830,0.128192
391.326821,0.129189
391.628812,0.130206
391.930804,0.131245
392.232795,0.132305
392.534786,0.133388
392.836777,0.134493
393.138769,0.135622
393.440760,0.136776
393.742751,0.137954
394.044742,0.139158
394.346734,0.140388
394.648725,0.141646
394.950716,0.142931
395.252708,0.144245
395.554699,0.145589
395.856690,0.146963
396.158681,0.148368
396.460673,0.149805
396.762664,0.151276
397.064655,0.152781
397.366646,0.154320
397.668638,0.155896
397.970629,0.157510
398.272620,0.159161
398.574611,0.160853
398.876603,0.162585
399.178594,0.164359
399.480585,0.166177
399.782577,0.168039
400.084568,0.169947
400.386559,0.171904
400.688550,0.173909
400.990542,0.175965
401.292533,0.178073
401.594524,0.180236
401.896515,0.182454
402.198507,0.184729
402.500498,0.187065
402.802489,0.189461
403.104481,0.191921
403.406472,0.194447
403.708463,0.197040
404.010454,0.199704
404.312446,0.202439
404.614437,0.205250
404.916428,0.208138
405.218419,0.211106
405.520411,0.214157
405.822402,0.217293
406.124393,0.220518
406.426384,0.223834
406.728376,0.227246
407.030367,0.230755
407.332358,0.234366
407.634350,0.238081
407.936341,0.241906
408.238332,0.245842
408.540323,0.249895
408.842315,0.254069
409.144306,0.258367
409.446297,0.262795
409.748288,0.267356
410.050280,0.272055
410.352271,0.276897
410.654262,0.281888
410.956253,0.287031
411.258245,0.292333
411.560236,0.297799
411.862227,0.303435
412.164219,0.309246
412.466210,0.315238
412.768201,0.321417
413.070192,0.327790
413.372184,0.334362
413.674175,0.341140
413.976166,0.348132
414.278157,0.355342
414.580149,0.362778
414.882140,0.370447
415.184131,0.378355
415.486122,0.386509
415.788114,0.394916
416.090105,0.403581
416.392096,0.412512
416.694088,0.421715
416.996079,0.431195
417.298070,0.440957
417.600061,0.451008
417.902053,0.461351
418.204044,0.471990
418.506035,0.482928
418.808026,0.494168
419.110018,0.505711
419.412009,0.517556
419.714000,0.529703
420.015992,0.542150
420.317983,0.554890
420.619974,0.567919
420.921965,0.581227
421.223957,0.594804
421.525948,0.608636
421.827939,0.622708
422.129930,0.637000
422.431922,0.651489
422.733913,0.666151
423.035904,0.680955
423.337895,0.695867
423.639887,0.710852
423.941878,0.725866
424.243869,0.740864
424.545861,0.755797
424.847852,0.770609
425.149843,0.785244
425.451834,0.799639
425.753826,0.813729
426.055817,0.827446
426.357808,0.840719
426.659799,0.853477
426.961791,0.865644
427.263782,0.877148
427.565773,0.887916
427.867764,0.897877
428.169756,0.906963
428.471747,0.915109
428.773738,0.922256
429.075730,0.928351
429.377721,0.933349
429.679712,0.937211
429.981703,0.939907
430.283695,0.941418
430.585686,0.941734
430.887677,0.940854
431.189668,0.938787
431.491660,0.935554
431.793651,0.931182
432.095642,0.925710
432.397633,0.919184
432.699625,0.911655
433.001616,0.903183
433.303607,0.893833
433.605599,0.883673
433.907590,0.872774
434.209581,0.861211
434.511572,0.849057
434.813564,0.836387
435.115555,0.823274
435.417546,0.809791
435.719537,0.796007
436.021529,0.781990
436.323520,0.767801
436.625511,0.753502
436.927502,0.739148
437.229494,0.724791
437.531485,0.710479
437.833476,0.696256
438.135468,0.682162
438.437459,0.668231
438.739450,0.654497
439.041441,0.640988
439.343433,0.627729
439.645424,0.614742
439.947415,0.602046
440.249406,0.589658
440.551398,0.577592
440.853389,0.565859
441.155380,0.554471
441.457372,0.543434
441.759363,0.532758
442.061354,0.522446
442.363345,0.512504
442.665337,0.502935
442.967328,0.493743
443.269319,0.484930
443.571310,0.476498
443.873302,0.468448
444.175293,0.460782
444.477284,0.453501
444.779275,0.446604
445.081267,0.440094
445.383258,0.433969
445.685249,0.428230
445.987241,0.422873
446.289232,0.417899
446.591223,0.413301
446.893214,0.409075
447.195206,0.405213
447.497197,0.401703
447.799188,0.398531
448.101179,0.395676
448.403171,0.393113
448.705162,0.390810
449.007153,0.388728
449.309144,0.386822
449.611136,0.385035
449.913127,0.383306
450.215118,0.381566
450.517110,0.379743
450.819101,0.377760
451.121092,0.375545
451.423083,0.373029
451.725075,0.370154
452.027066,0.366873
452.329057,0.363158
452.631048,0.359000
452.933040,0.354406
453.235031,0.349404
453.537022,0.344036
453.839013,0.338358
454.141005,0.332431
454.442996,0.326322
454.744987,0.320097
455.046979,0.313821
455.348970,0.307552
455.650961,0.301341
455.952952,0.295231
456.254944,0.289258
456.556935,0.283450
456.858926,0.277829
457.160917,0.272408
457.462909,0.267199
457.764900,0.262205
458.066891,0.257430
458.368883,0.252871
458.670874,0.248526
458.972865,0.244389
459.274856,0.240455
459.576848,0.236717
459.878839,0.233167
460.180830,0.229799
460.482821,0.226604
460.784813,0.223576
461.086804,0.220708
461.388795,0.217991
461.690786,0.215420
461.992778,0.212989
462.294769,0.210691
462.596760,0.208522
462.898752,0.206475
463.200743,0.204546
463.502734,0.202731
463.804725,0.201026
464.106717,0.199427
464.408708,0.197931
464.710699,0.196534
465.012690,0.195233
465.314682,0.194027
465.616673,0.192913
465.918664,0.191888
466.220655,0.190952
466.522647,0.190103
466.824638,0.189339
467.126629,0.188659
467.428621,0.188063
467.730612,0.187550
468.032603,0.187119
468.334594,0.186770
468.636586,0.186503
468.938577,0.186318
469.240568,0.186216
469.542559,0.186196
469.844551,0.186259
470.146542,0.186406
470.448533,0.186638
470.750524,0.186956
471.052516,0.187361
471.354507,0.187855
471.656498,0.188438
471.958490,0.189113
472.260481,0.189881
472.562472,0.190743
472.864463,0.191703
473.166455,0.192762
473.468446,0.193922
473.770437,0.195186
474.072428,0.196555
474.374420,0.198031
474.676411,0.199618
474.978402,0.201317
475.280394,0.203131
475.582385,0.205061
475.884376,0.207110
476.186367,0.209278
476.488359,0.211569
476.790350,0.213982
477.092341,0.216519
477.394332,0.219179
477.696324,0.221962
477.998315,0.224867
478.300306,0.227892
478.602297,0.231034
478.904289,0.234289
479.206280,0.237651
479.508271,0.241113
479.810263,0.244668
480.112254,0.248305
480.414245,0.252012
480.716236,0.255776
481.018228,0.259579
481.320219,0.263404
481.622210,0.267231
481.924201,0.271035
482.226193,0.274793
482.528184,0.278477
482.830175,0.282057
483.132166,0.285504
483.434158,0.288786
483.736149,0.291869
484.038140,0.294722
484.340132,0.297311
484.642123,0.299605
484.944114,0.301575
485.246105,0.303194
485.548097,0.304438
485.850088,0.305287
486.152079,0.305726
486.454070,0.305745
486.756062,0.305337
487.058053,0.304505
487.360044,0.303252
487.662035,0.301590
487.964027,0.299535
488.266018,0.297107
488.568009,0.294328
488.870001,0.291228
489.171992,0.287834
489.473983,0.284178
489.775974,0.280293
490.077966,0.276210
490.379957,0.271963
490.681948,0.267583
490.983939,0.263099
491.285931,0.258540
491.587922,0.253933
491.889913,0.249302
492.191904,0.244670
492.493896,0.240056
492.795887,0.235478
493.097878,0.230952
493.399870,0.226491
493.701861,0.222107
494.003852,0.217808
494.305843,0.213603
494.607835,0.209498
494.909826,0.205497
495.211817,0.201605
495.513808,0.197823
495.815800,0.194154
496.117791,0.190597
496.419782,0.187152
496.721774,0.183820
497.023765,0.180598
497.325756,0.177485
497.627747,0.174479
497.929739,0.171577
498.231730,0.168778
498.533721,0.166078
498.835712,0.163475
499.137704,0.160966
499.439695,0.158547
499.741686,0.156216
500.043677,0.153970
500.345669,0.151806
500.647660,0.149721
500.949651,0.147712
501.251643,0.145776
501.553634,0.143911
501.855625,0.142114
502.157616,0.140382
502.459608,0.138713
502.761599,0.137104
503.063590,0.135554
503.365581,0.134059
503.667573,0.132618
503.969564,0.131229
504.271555,0.129889
504.573546,0.128597
504.875538,0.127350
505.177529,0.126148
505.479520,0.124989
505.781512,0.123870
506.083503,0.122791
506.385494,0.121750
506.687485,0.120745
506.989477,0.119775
507.291468,0.118840
507.593459,0.117937
507.895450,0.117066
508.197442,0.116225
508.499433,0.115414
508.801424,0.114632
509.103415,0.113877
509.405407,0.113149
509.707398,0.112447
510.009389,0.111770
510.311381,0.111117
510.613372,0.110489
510.915363,0.109883
511.217354,0.109299
511.519346,0.108737
511.821337,0.108197
512.123328,0.107677
512.425319,0.107178
512.727311,0.106698
513.029302,0.106237
513.331293,0.105796
513.633285,0.105373
513.935276,0.104968
514.237267,0.104581
514.539258,0.104212
514.841250,0.103860
515.143241,0.103525
515.445232,0.103207
515.747223,0.102905
516.049215,0.102621
516.351206,0.102352
516.653197,0.102101
516.955188,0.101865
517.257180,0.101646
517.559171,0.101442
517.861162,0.101256
518.163154,0.101085
518.465145,0.100931
518.767136,0.100793
519.069127,0.100672
519.371119,0.100567
519.673110,0.100480
519.975101,0.100409
520.277092,0.100357
520.579084,0.100321
520.881075,0.100304
521.183066,0.100306
521.485057,0.100326
521.787049,0.100366
522.089040,0.100426
522.391031,0.100506
522.693023,0.100607
522.995014,0.100730
523.297005,0.100875
523.598996,0.101043
523.900988,0.101236
524.202979,0.101453
524.504970,0.101696
524.806961,0.101966
525.108953,0.102263
525.410944,0.102590
525.712935,0.102946
526.014926,0.103334
526.316918,0.103753
526.618909,0.104206
526.920900,0.104694
527.222892,0.105217
527.524883,0.105776
527.826874,0.106373
528.128865,0.107008
528.430857,0.107682
528.732848,0.108394
529.034839,0.109146
529.336830,0.109935
529.638822,0.110762
529.940813,0.111624
530.242804,0.112518
530.544796,0.113443
530.846787,0.114393
531.148778,0.115363
531.450769,0.116347
531.752761,0.117339
532.054752,0.118330
532.356743,0.119311
532.658734,0.120272
532.960726,0.121206
533.262717,0.122102
533.564708,0.122951
533.866699,0.123747
534.168691,0.124482
534.470682,0.125154
534.772673,0.125759
535.074665,0.126300
535.376656,0.126779
535.678647,0.127202
535.980638,0.127576
536.282630,0.127913
536.584621,0.128222
536.886612,0.128515
537.188603,0.128806
537.490595,0.129107
537.792586,0.129431
538.094577,0.129789
538.396568,0.130192
538.698560,0.130651
539.000551,0.131176
539.302542,0.131775
539.604534,0.132456
539.906525,0.133227
540.208516,0.134094
540.510507,0.135064
540.812499,0.136142
541.114490,0.137335
541.416481,0.138648
541.718472,0.140087
542.020464,0.141657
542.322455,0.143364
542.624446,0.145215
542.926437,0.147215
543.228429,0.149371
543.530420,0.151690
543.832411,0.154178
544.134403,0.156844
544.436394,0.159695
544.738385,0.162738
545.040376,0.165982
545.342368,0.169434
545.644359,0.173103
545.946350,0.176996
546.248341,0.181120
546.550333,0.185482
546.852324,0.190086
547.154315,0.194937
547.456307,0.200037
547.758298,0.205384
548.060289,0.210976
548.362280,0.216805
548.664272,0.222859
548.966263,0.229121
549.268254,0.235566
549.570245,0.242164
549.872237,0.248877
550.174228,0.255656
550.476219,0.262445
550.778210,0.269178
551.080202,0.275779
551.382193,0.282165
551.684184,0.288246
551.986176,0.293924
552.288167,0.299102
552.590158,0.303682
552.892149,0.307572
553.194141,0.310688
553.496132,0.312958
553.798123,0.314330
554.100114,0.314767
554.402106,0.314257
554.704097,0.312808
555.006088,0.310452
555.308079,0.307239
555.610071,0.303236
555.912062,0.298526
556.214053,0.293198
556.516045,0.287351
556.818036,0.281081
557.120027,0.274485
557.422018,0.267656
557.724010,0.260676
558.026001,0.253624
558.327992,0.246566
558.629983,0.239561
558.931975,0.232656
559.233966,0.225894
559.535957,0.219304
559.837948,0.212911
560.139940,0.206734
560.441931,0.200785
560.743922,0.195071
561.045914,0.189596
561.347905,0.184361
561.649896,0.179363
561.951887,0.174599
562.253879,0.170062
562.555870,0.165745
562.857861,0.161641
563.159852,0.157742
563.461844,0.154038
563.763835,0.150520
564.065826,0.147181
564.367817,0.144010
564.669809,0.141000
564.971800,0.138142
565.273791,0.135427
565.575783,0.132849
565.877774,0.130400
566.179765,0.128072
566.481756,0.125858
566.783748,0.123754
567.085739,0.121751
567.387730,0.119845
567.689721,0.118030
567.991713,0.116301
568.293704,0.114654
568.595695,0.113084
568.897687,0.111586
569.199678,0.110156
569.501669,0.108792
569.803660,0.107489
570.105652,0.106243
570.407643,0.105053
570.709634,0.103915
571.011625,0.102827
571.313617,0.101785
571.615608,0.100787
571.917599,0.099832
572.219590,0.098916
572.521582,0.098039
572.823573,0.097197
573.125564,0.096390
573.427556,0.095616
573.729547,0.094873
574.031538,0.094159
574.333529,0.093474
574.635521,0.092816
574.937512,0.092184
575.239503,0.091576
575.541494,0.090992
575.843486,0.090430
576.145477,0.089890
576.447468,0.089370
576.749459,0.088871
577.051451,0.088390
577.353442,0.087927
577.655433,0.087482
577.957425,0.087054
578.259416,0.086642
578.561407,0.086246
578.863398,0.085864
579.165390,0.085497
579.467381,0.085144
579.769372,0.084804
580.071363,0.084478
580.373355,0.084163
580.675346,0.083862
580.977337,0.083571
581.279328,0.083293
581.581320,0.083025
581.883311,0.082768
582.185302,0.082522
582.487294,0.082286
582.789285,0.082060
583.091276,0.081843
583.393267,0.081636
583.695259,0.081438
583.997250,0.081250
584.299241,0.081070
584.601232,0.080899
584.903224,0.080736
585.205215,0.080582
585.507206,0.080436
585.809198,0.080298
586.111189,0.080169
586.413180,0.080047
586.715171,0.079934
587.017163,0.079828
587.319154,0.079730
587.621145,0.079639
587.923136,0.079557
588.225128,0.079482
588.527119,0.079415
588.829110,0.079355
589.131101,0.079304
589.433093,0.079260
589.735084,0.079224
590.037075,0.079195
590.339067,0.079175
590.641058,0.079163
590.943049,0.079159
591.245040,0.079163
591.547032,0.079176
591.849023,0.079197
592.151014,0.079227
592.453005,0.079266
592.754997,0.079314
593.056988,0.079371
593.358979,0.079438
593.660970,0.079514
593.962962,0.079601
594.264953,0.079699
594.566944,0.079807
594.868936,0.079927
595.170927,0.080058
595.472918,0.080201
595.774909,0.080356
596.076901,0.080525
596.378892,0.080707
596.680883,0.080904
596.982874,0.081115
597.284866,0.081342
597.586857,0.081585
597.888848,0.081846
598.190839,0.082124
598.492831,0.082421
598.794822,0.082738
599.096813,0.083076
599.398805,0.083436
599.700796,0.083820
600.002787,0.084228
600.304778,0.084663
600.606770,0.085125
600.908761,0.085618
601.210752,0.086142
601.512743,0.086699
601.814735,0.087292
602.116726,0.087924
602.418717,0.088596
602.720709,0.089312
603.022700,0.090075
603.324691,0.090888
603.626682,0.091754
603.928674,0.092678
604.230665,0.093663
604.532656,0.094716
604.834647,0.095839
605.136639,0.097040
605.438630,0.098323
605.740621,0.099696
606.042612,0.101164
606.344604,0.102736
606.646595,0.104420
606.948586,0.106223
607.250578,0.108155
607.552569,0.110226
607.854560,0.112445
608.156551,0.114824
608.458543,0.117372
608.760534,0.120101
609.062525,0.123021
609.364516,0.126143
609.666508,0.129475
609.968499,0.133025
610.270490,0.136798
610.572481,0.140797
610.874473,0.145018
611.176464,0.149452
611.478455,0.154084
611.780447,0.158887
612.082438,0.163826
612.384429,0.168850
612.686420,0.173897
612.988412,0.178887
613.290403,0.183729
613.592394,0.188316
613.894385,0.192533
614.196377,0.196261
614.498368,0.199383
614.800359,0.201793
615.102350,0.203403
615.404342,0.204153
615.706333,0.204014
616.008324,0.202993
616.310316,0.201130
616.612307,0.198496
616.914298,0.195187
617.216289,0.191312
617.518281,0.186992
617.820272,0.182344
618.122263,0.177480
618.424254,0.172504
618.726246,0.167501
619.028237,0.162545
619.330228,0.157695
619.632219,0.152996
619.934211,0.148479
620.236202,0.144167
620.538193,0.140073
620.840185,0.136204
621.142176,0.132560
621.444167,0.129139
621.746158,0.125935
622.048150,0.122940
622.350141,0.120143
622.652132,0.117535
622.954123,0.115105
623.256115,0.112842
623.558106,0.110736
623.860097,0.108777
624.162089,0.106954
624.464080,0.105258
624.766071,0.103681
625.068062,0.102214
625.370054,0.100849
625.672045,0.099580
625.974036,0.098400
626.276027,0.097303
626.578019,0.096282
626.880010,0.095334
627.182001,0.094453
627.483992,0.093635
627.785984,0.092875
628.087975,0.092171
628.389966,0.091518
628.691958,0.090914
628.993949,0.090355
629.295940,0.089840
629.597931,0.089365
629.899923,0.088929
630.201914,0.088530
630.503905,0.088165
630.805896,0.087834
631.107888,0.087534
631.409879,0.087264
631.711870,0.087023
632.013861,0.086810
632.315853,0.086624
632.617844,0.086464
632.919835,0.086329
633.221827,0.086218
633.523818,0.086130
633.825809,0.086066
634.127800,0.086024
634.429792,0.086005
634.731783,0.086007
635.033774,0.086031
635.335765,0.086076
635.637757,0.086142
635.939748,0.086230
636.241739,0.086338
636.543730,0.086467
636.845722,0.086617
637.147713,0.086788
637.449704,0.086981
637.751696,0.087195
638.053687,0.087431
638.355678,0.087689
638.657669,0.087970
638.959661,0.088273
639.261652,0.088601
639.563643,0.088952
639.865634,0.089328
640.167626,0.089729
640.469617,0.090157
640.771608,0.090612
641.073600,0.091094
641.375591,0.091606
641.677582,0.092148
641.979573,0.092721
642.281565,0.093326
642.583556,0.093965
642.885547,0.094640
643.187538,0.095351
643.489530,0.096101
643.791521,0.096891
644.093512,0.097723
644.395503,0.098600
644.697495,0.099524
644.999486,0.100496
645.301477,0.101520
645.603469,0.102598
645.905460,0.103733
646.207451,0.104929
646.509442,0.106189
646.811434,0.107516
647.113425,0.108914
647.415416,0.110388
647.717407,0.111941
648.019399,0.113579
648.321390,0.115307
648.623381,0.117130
648.925372,0.119054
649.227364,0.121085
649.529355,0.123230
649.831346,0.125496
650.133338,0.127890
650.435329,0.130422
650.737320,0.133098
651.039311,0.135928
651.341303,0.138922
651.643294,0.142089
651.945285,0.145441
652.247276,0.148988
652.549268,0.152741
652.851259,0.156713
653.153250,0.160916
653.455241,0.165361
653.757233,0.170060
654.059224,0.175026
654.361215,0.180270
654.663207,0.185801
654.965198,0.191628
655.267189,0.197759
655.569180,0.204197
655.871172,0.210944
656.173163,0.217995
656.475154,0.225341
656.777145,0.232967
657.079137,0.240849
657.381128,0.248954
657.683119,0.257239
657.985111,0.265647
658.287102,0.274112
658.589093,0.282551
658.891084,0.290869
659.193076,0.298957
659.495067,0.306696
659.797058,0.313958
660.099049,0.320608
660.401041,0.326514
660.703032,0.331546
661.005023,0.335587
661.307014,0.338539
661.609006,0.340327
661.910997,0.340901
662.212988,0.340248
662.514980,0.338383
662.816971,0.335353
663.118962,0.331234
663.420953,0.326126
663.722945,0.320144
664.024936,0.313418
664.326927,0.306082
664.628918,0.298268
664.930910,0.290107
665.232901,0.281716
665.534892,0.273204
665.836883,0.264667
666.138875,0.256187
666.440866,0.247830
666.742857,0.239653
667.044849,0.231699
667.346840,0.224000
667.648831,0.216581
667.950822,0.209456
668.252814,0.202636
668.554805,0.196124
668.856796,0.189918
669.158787,0.184015
669.460779,0.178408
669.762770,0.173088
670.064761,0.168044
670.366752,0.163266
670.668744,0.158742
670.970735,0.154460
671.272726,0.150407
671.574718,0.146572
671.876709,0.142942
672.178700,0.139507
672.480691,0.136254
672.782683,0.133175
673.084674,0.130258
673.386665,0.127493
673.688656,0.124873
673.990648,0.122388
674.292639,0.120030
674.594630,0.117792
674.896621,0.115666
675.198613,0.113646
675.500604,0.111726
675.802595,0.109899
676.104587,0.108160
676.406578,0.106504
676.708569,0.104927
677.010560,0.103422
677.312552,0.101988
677.614543,0.100618
677.916534,0.099311
678.218525,0.098061
678.520517,0.096867
678.822508,0.095725
679.124499,0.094631
679.426491,0.093585
679.728482,0.092582
680.030473,0.091621
680.332464,0.090699
680.634456,0.089815
680.936447,0.088966
681.238438,0.088151
681.540429,0.087367
681.842421,0.086615
682.144412,0.085890
682.446403,0.085194
682.748394,0.084523
683.050386,0.083877
683.352377,0.083255
683.654368,0.082655
683.956360,0.082077
684.258351,0.081519
684.560342,0.080981
684.862333,0.080461
685.164325,0.079959
685.466316,0.079475
685.768307,0.079006
686.070298,0.078553
686.372290,0.078114
686.674281,0.077690
686.976272,0.077280
687.278263,0.076882
687.580255,0.076497
687.882246,0.076124
688.184237,0.075763
688.486229,0.075412
688.788220,0.075072
689.090211,0.074743
689.392202,0.074422
689.694194,0.074112
689.996185,0.073810
690.298176,0.073517
690.600167,0.073232
690.902159,0.072955
691.204150,0.072686
691.506141,0.072425
691.808132,0.072170
692.110124,0.071923
692.412115,0.071682
692.714106,0.071447
693.016098,0.071219
693.318089,0.070996
693.620080,0.070780
693.922071,0.070568
694.224063,0.070363
694.526054,0.070162
694.828045,0.069966
695.130036,0.069775
695.432028,0.069589
695.734019,0.069408
696.036010,0.069230
696.338002,0.069057
696.639993,0.068888
696.941984,0.068723
697.243975,0.068562
697.545967,0.068405
697.847958,0.068251
698.149949,0.068100
698.451940,0.067953
698.753932,0.067809
699.055923,0.067669
699.357914,0.067531
699.659905,0.067397
699.961897,0.067265
700.263888,0.067136
700.565879,0.067010
700.867871,0.066887
701.169862,0.066766
701.471853,0.066647
701.773844,0.066531
702.075836,0.066418
702.377827,0.066306
702.679818,0.066197
702.981809,0.066090
703.283801,0.065986
703.585792,0.065883
703.887783,0.065782
704.189774,0.065683
704.491766,0.065586
704.793757,0.065491
705.095748,0.065398
705.397740,0.065306
705.699731,0.065217
706.001722,0.065128
706.303713,0.065042
706.605705,0.064957
706.907696,0.064873
707.209687,0.064791
707.511678,0.064711
707.813670,0.064632
708.115661,0.064554
708.417652,0.064478
708.719643,0.064402
709.021635,0.064329
709.323626,0.064256
709.625617,0.064185
709.927609,0.064115
710.229600,0.064046
710.531591,0.063978
710.833582,0.063911
711.135574,0.063846
711.437565,0.063781
711.739556,0.063718
712.041547,0.063655
712.343539,0.063594
712.645530,0.063534
712.947521,0.063474
713.249513,0.063415
713.551504,0.063358
713.853495,0.063301
714.155486,0.063245
714.457478,0.063190
714.759469,0.063136
715.061460,0.063082
715.363451,0.063029
715.665443,0.062978
715.967434,0.062926
716.269425,0.062876
716.571416,0.062826
716.873408,0.062778
717.175399,0.062729
717.477390,0.062682
717.779382,0.062635
718.081373,0.062589
718.383364,0.062543
718.685355,0.062498
718.987347,0.062454
719.289338,0.062410
719.591329,0.062367
719.893320,0.062325
720.195312,0.062283
720.497303,0.062241
720.799294,0.062201
721.101285,0.062160
721.403277,0.062121
721.705268,0.062081
722.007259,0.062043
722.309251,0.062005
722.611242,0.061967
722.913233,0.061930
723.215224,0.061893
723.517216,0.061857
723.819207,0.061821
724.121198,0.061785
724.423189,0.061750
724.725181,0.061716
725.027172,0.061682
725.329163,0.061648
725.631154,0.061615
725.933146,0.061582
726.235137,0.061550
726.537128,0.061517
726.839120,0.061486
727.141111,0.061454
727.443102,0.061423
727.745093,0.061393
728.047085,0.061363
728.349076,0.061333
728.651067,0.061303
728.953058,0.061274
729.255050,0.061245
729.557041,0.061217
729.859032,0.061188
730.161024,0.061161
730.463015,0.061133
730.765006,0.061106
731.066997,0.061079
731.368989,0.061052
731.670980,0.061026
731.972971,0.061000
732.274962,0.060974
732.576954,0.060948
732.878945,0.060923
733.180936,0.060898
733.482927,0.060873
733.784919,0.060849
734.086910,0.060825
734.388901,0.060801
734.690893,0.060777
734.992884,0.060753
735.294875,0.060730
735.596866,0.060707
735.898858,0.060684
736.200849,0.060662
736.502840,0.060640
736.804831,0.060618
737.106823,0.060596
737.408814,0.060574
737.710805,0.060553
738.012796,0.060531
738.314788,0.060510
738.616779,0.060490
738.918770,0.060469
739.220762,0.060449
739.522753,0.060428
739.824744,0.060408
740.126735,0.060389
740.428727,0.060369
740.730718,0.060350
741.032709,0.060330
741.334700,0.060311
741.636692,0.060292
741.938683,0.060274
742.240674,0.060255
742.542665,0.060237
742.844657,0.060218
743.146648,0.060200
743.448639,0.060183
743.750631,0.060165
744.052622,0.060147
744.354613,0.060130
744.656604,0.060113
744.958596,0.060096
745.260587,0.060079
745.562578,0.060062
745.864569,0.060045
746.166561,0.060029
746.468552,0.060012
746.770543,0.059996
747.072534,0.059980
747.374526,0.059964
747.676517,0.059948
747.978508,0.059933
748.280500,0.059917
748.582491,0.059902
748.884482,0.059886
749.186473,0.059871
749.488465,0.059856
749.790456,0.059841
750.092447,0.059826
750.394438,0.059812
750.696430,0.059797
750.998421,0.059783
751.300412,0.059769
751.602404,0.059754
751.904395,0.059740
752.206386,0.059726
752.508377,0.059712
752.810369,0.059699
753.112360,0.059685
753.414351,0.059672
753.716342,0.059658
754.018334,0.059645
754.320325,0.059632
754.622316,0.059619
754.924307,0.059606
755.226299,0.059593
755.528290,0.059580
755.830281,0.059567
756.132273,0.059555
756.434264,0.059542
756.736255,0.059530
757.038246,0.059517
757.340238,0.059505
757.642229,0.059493
757.944220,0.059481
758.246211,0.059469
758.548203,0.059457
758.850194,0.059445
759.152185,0.059433
759.454176,0.059422
759.756168,0.059410
760.058159,0.059399
760.360150,0.059388
760.662142,0.059376
760.964133,0.059365
761.266124,0.059354
761.568115,0.059343
761.870107,0.059332
762.172098,0.059321
762.474089,0.059310
762.776080,0.059299
763.078072,0.059289
763.380063,0.059278
763.682054,0.059268
763.984045,0.059257
764.286037,0.059247
764.588028,0.059237
764.890019,0.059226
765.192011,0.059216
765.494002,0.059206
765.795993,0.059196
766.097984,0.059186
766.399976,0.059176
766.701967,0.059166
767.003958,0.059157
767.305949,0.059147
767.607941,0.059137
767.909932,0.059128
768.211923,0.059118
768.513915,0.059109
768.815906,0.059099
769.117897,0.059090
769.419888,0.059081
769.721880,0.059072
770.023871,0.059063
770.325862,0.059053
770.627853,0.059044
770.929845,0.059035
771.231836,0.059027
771.533827,0.059018
771.835818,0.059009
772.137810,0.059000
772.439801,0.058991
772.741792,0.058983
773.043784,0.058974
773.345775,0.058966
773.647766,0.058957
773.949757,0.058949
774.251749,0.058940
774.553740,0.058932
774.855731,0.058924
775.157722,0.058916
775.459714,0.058908
775.761705,0.058899
776.063696,0.058891
776.365687,0.058883
776.667679,0.058875
776.969670,0.058867
777.271661,0.058860
777.573653,0.058852
777.875644,0.058844
778.177635,0.058836
778.479626,0.058828
778.781618,0.058821
779.083609,0.058813
779.385600,0.058806
779.687591,0.058798
779.989583,0.058791
780.291574,0.058783
780.593565,0.058776
780.895556,0.058769
781.197548,0.058761
781.499539,0.058754
781.801530,0.058747
782.103522,0.058740
782.405513,0.058732
782.707504,0.058725
783.009495,0.058718
783.311487,0.058711
783.613478,0.058704
783.915469,0.058697
784.217460,0.058690
784.519452,0.058684
784.821443,0.058677
785.123434,0.058670
785.425426,0.058663
785.727417,0.058657
786.029408,0.058650
786.331399,0.058643
786.633391,0.058637
786.935382,0.058630
787.237373,0.058624
787.539364,0.058617
787.841356,0.058611
788.143347,0.058604
788.445338,0.058598
788.747329,0.058591
789.049321,0.058585
789.351312,0.058579
789.653303,0.058572
789.955295,0.058566
790.257286,0.058560
790.559277,0.058554
790.861268,0.058548
791.163260,0.058542
791.465251,0.058536
791.767242,0.058530
792.069233,0.058524
792.371225,0.058518
792.673216,0.058512
792.975207,0.058506
793.277198,0.058500
793.579190,0.058494
793.881181,0.058488
794.183172,0.058482
794.485164,0.058477
794.787155,0.058471
795.089146,0.058465
795.391137,0.058460
795.693129,0.058454
795.995120,0.058448
796.297111,0.058443
796.599102,0.058437
796.901094,0.058432
797.203085,0.058426
797.505076,0.058421
797.807067,0.058415
798.109059,0.058410
798.411050,0.058404
798.713041,0.058399
799.015033,0.058394
799.317024,0.058388
799.619015,0.058383
799.921006,0.058378
800.222998,0.058372
800.524989,0.058367
800.826980,0.058362
801.128971,0.058357
801.430963,0.058352
801.732954,0.058347
802.034945,0.058341
802.336936,0.058336
802.638928,0.058331
802.940919,0.058326
803.242910,0.058321
803.544902,0.058316
803.846893,0.058311
804.148884,0.058306
804.450875,0.058301
804.752867,0.058297
805.054858,0.058292
805.356849,0.058287
805.658840,0.058282
805.960832,0.058277
806.262823,0.058272
806.564814,0.058268
806.866806,0.058263
807.168797,0.058258
807.470788,0.058254
807.772779,0.058249
808.074771,0.058244
808.376762,0.058240
808.678753,0.058235
808.980744,0.058230
809.282736,0.058226
809.584727,0.058221
809.886718,0.058217
810.188709,0.058212
810.490701,0.058208
810.792692,0.058203
811.094683,0.058199
811.396675,0.058194
811.698666,0.058190
812.000657,0.058186
812.302648,0.058181
812.604640,0.058177
812.906631,0.058173
813.208622,0.058168
813.510613,0.058164
813.812605,0.058160
814.114596,0.058155
814.416587,0.058151
814.718578,0.058147
815.020570,0.058143
815.322561,0.058139
815.624552,0.058134
815.926544,0.058130
816.228535,0.058126
816.530526,0.058122
816.832517,0.058118
817.134509,0.058114
817.436500,0.058110
817.738491,0.058106
818.040482,0.058102
818.342474,0.058098
818.644465,0.058094
818.946456,0.058090
819.248447,0.058086
819.550439,0.058082
819.852430,0.058078
820.154421,0.058074
820.456413,0.058070
820.758404,0.058066
821.060395,0.058062
821.362386,0.058058
821.664378,0.058055
821.966369,0.058051
822.268360,0.058047
822.570351,0.058043
822.872343,0.058039
823.174334,0.058036
823.476325,0.058032
823.778317,0.058028
824.080308,0.058025
824.382299,0.058021
824.684290,0.058017
824.986282,0.058013
825.288273,0.058010
825.590264,0.058006
825.892255,0.058003
826.194247,0.057999
826.496238,0.057995
826.798229,0.057992
827.100220,0.057988
827.402212,0.057985
827.704203,0.057981
828.006194,0.057978
828.308186,0.057974
828.610177,0.057971
828.912168,0.057967
829.214159,0.057964
829.516151,0.057960
829.818142,0.057957
830.120133,0.057953
830.422124,0.057950
830.724116,0.057946
831.026107,0.057943
831.328098,0.057940
831.630089,0.057936
831.932081,0.057933
832.234072,0.057930
832.536063,0.057926
832.838055,0.057923
833.140046,0.057920
833.442037,0.057916
833.744028,0.057913
834.046020,0.057910
834.348011,0.057907
834.650002,0.057903
834.951993,0.057900
835.253985,0.057897
835.555976,0.057894
835.857967,0.057891
836.159958,0.057887
836.461950,0.057884
836.763941,0.057881
837.065932,0.057878
837.367924,0.057875
837.669915,0.057872
837.971906,0.057868
838.273897,0.057865
838.575889,0.057862
838.877880,0.057859
839.179871,0.057856
839.481862,0.057853
839.783854,0.057850
840.085845,0.057847
840.387836,0.057844
840.689828,0.057841
840.991819,0.057838
841.293810,0.057835
841.595801,0.057832
841.897793,0.057829
842.199784,0.057826
842.501775,0.057823
842.803766,0.057820
843.105758,0.057817
843.407749,0.057814
843.709740,0.057811
844.011731,0.057809
844.313723,0.057806
844.615714,0.057803
844.917705,0.057800
845.219697,0.057797
845.521688,0.057794
845.823679,0.057791
846.125670,0.057789
846.427662,0.057786
846.729653,0.057783
847.031644,0.057780
847.333635,0.057777
847.635627,0.057775
847.937618,0.057772
848.239609,0.057769
848.541600,0.057766
848.843592,0.057764
849.145583,0.057761
849.447574,0.057758
849.749566,0.057755
850.051557,0.057753
850.353548,0.057750
850.655539,0.057747
850.957531,0.057745
851.259522,0.057742
851.561513,0.057739
851.863504,0.057737
852.165496,0.057734
852.467487,0.057731
852.769478,0.057729
853.071469,0.057726
853.373461,0.057724
853.675452,0.057721
853.977443,0.057718
854.279435,0.057716
854.581426,0.057713
854.883417,0.057711
855.185408,0.057708
855.487400,0.057706
855.789391,0.057703
856.091382,0.057701
856.393373,0.057698
856.695365,0.057696
856.997356,0.057693
857.299347,0.057691
857.601339,0.057688
857.903330,0.057686
858.205321,0.057683
858.507312,0.057681
858.809304,0.057678
859.111295,0.057676
859.413286,0.057673
859.715277,0.057671
860.017269,0.057668
860.319260,0.057666
860.621251,0.057664
860.923242,0.057661
861.225234,0.057659
861.527225,0.057656
861.829216,0.057654
862.131208,0.057652
862.433199,0.057649
862.735190,0.057647
863.037181,0.057645
863.339173,0.057642
863.641164,0.057640
863.943155,0.057638
864.245146,0.057635
864.547138,0.057633
864.849129,0.057631
865.151120,0.057628
865.453111,0.057626
865.755103,0.057624
866.057094,0.057622
866.359085,0.057619
866.661077,0.057617
866.963068,0.057615
867.265059,0.057613
867.567050,0.057610
867.869042,0.057608
868.171033,0.057606
868.473024,0.057604
868.775015,0.057602
869.077007,0.057599
869.378998,0.057597
869.680989,0.057595
869.982980,0.057593
870.284972,0.057591
870.586963,0.057588
870.888954,0.057586
871.190946,0.057584
871.492937,0.057582
871.794928,0.057580
872.096919,0.057578
872.398911,0.057576
872.700902,0.057573
873.002893,0.057571
873.304884,0.057569
873.606876,0.057567
873.908867,0.057565
874.210858,0.057563
874.512849,0.057561
874.814841,0.057559
875.116832,0.057557
875.418823,0.057555
875.720815,0.057553
876.022806,0.057550
876.324797,0.057548
876.626788,0.057546
876.928780,0.057544
877.230771,0.057542
877.532762,0.057540
877.834753,0.057538
878.136745,0.057536
878.438736,0.057534
878.740727,0.057532
879.042719,0.057530
879.344710,0.057528
879.646701,0.057526
879.948692,0.057524
880.250684,0.057522
880.552675,0.057520
880.854666,0.057518
881.156657,0.057517
881.458649,0.057515
881.760640,0.057513
882.062631,0.057511
882.364622,0.057509
882.666614,0.057507
882.968605,0.057505
883.270596,0.057503
883.572588,0.057501
883.874579,0.057499
884.176570,0.057497
884.478561,0.057495
884.780553,0.057494
885.082544,0.057492
885.384535,0.057490
885.686526,0.057488
885.988518,0.057486
886.290509,0.057484
886.592500,0.057482
886.894491,0.057480
887.196483,0.057479
887.498474,0.057477
887.800465,0.057475
888.102457,0.057473
888.404448,0.057471
888.706439,0.057470
889.008430,0.057468
889.310422,0.057466
889.612413,0.057464
889.914404,0.057462
890.216395,0.057460
890.518387,0.057459
890.820378,0.057457
891.122369,0.057455
891.424360,0.057453
891.726352,0.057452
892.028343,0.057450
892.330334,0.057448
892.632326,0.057446
892.934317,0.057445
893.236308,0.057443
893.538299,0.057441
893.840291,0.057439
894.142282,0.057438
894.444273,0.057436
894.746264,0.057434
895.048256,0.057432
895.350247,0.057431
895.652238,0.057429
895.954230,0.057427
896.256221,0.057426
896.558212,0.057424
896.860203,0.057422
897.162195,0.057421
897.464186,0.057419
897.766177,0.057417
898.068168,0.057416
898.370160,0.057414
898.672151,0.057412
898.974142,0.057411
899.276133,0.057409
899.578125,0.057407
899.880116,0.057406
900.182107,0.057404
900.484099,0.057402
900.786090,0.057401
901.088081,0.057399
901.390072,0.057398
901.692064,0.057396
901.994055,0.057394
902.296046,0.057393
902.598037,0.057391
902.900029,0.057390
903.202020,0.057388
903.504011,0.057386
903.806002,0.057385
904.107994,0.057383
904.409985,0.057382
904.711976,0.057380
905.013968,0.057378
905.315959,0.057377
905.617950,0.057375
905.919941,0.057374
906.221933,0.057372
906.523924,0.057371
906.825915,0.057369
907.127906,0.057368
907.429898,0.057366
907.731889,0.057365
908.033880,0.057363
908.335871,0.057361
908.637863,0.057360
908.939854,0.057358
909.241845,0.057357
909.543837,0.057355
909.845828,0.057354
910.147819,0.057352
910.449810,0.057351
910.751802,0.057349
911.053793,0.057348
911.355784,0.057346
911.657775,0.057345
911.959767,0.057344
912.261758,0.057342
912.563749,0.057341
912.865741,0.057339
913.167732,0.057338
913.469723,0.057336
913.771714,0.057335
914.073706,0.057333
914.375697,0.057332
914.677688,0.057330
914.979679,0.057329
915.281671,0.057328
915.583662,0.057326
915.885653,0.057325
916.187644,0.057323
916.489636,0.057322
916.791627,0.057320
917.093618,0.057319
917.395610,0.057318
917.697601,0.057316
917.999592,0.057315
918.301583,0.057313
918.603575,0.057312
918.905566,0.057311
919.207557,0.057309
919.509548,0.057308
919.811540,0.057306
920.113531,0.057305
920.415522,0.057304
920.717513,0.057302
921.019505,0.057301
921.321496,0.057300
921.623487,0.057298
921.925479,0.057297
922.227470,0.057295
922.529461,0.057294
922.831452,0.057293
923.133444,0.057291
923.435435,0.057290
923.737426,0.057289
924.039417,0.057287
924.341409,0.057286
924.643400,0.057285
924.945391,0.057283
925.247382,0.057282
925.549374,0.057281
925.851365,0.057279
926.153356,0.057278
926.455348,0.057277
926.757339,0.057276
927.059330,0.057274
927.361321,0.057273
927.663313,0.057272
927.965304,0.057270
928.267295,0.057269
928.569286,0.057268
928.871278,0.057266
929.173269,0.057265
929.475260,0.057264
929.777251,0.057263
930.079243,0.057261
930.381234,0.057260
930.683225,0.057259
930.985217,0.057258
931.287208,0.057256
931.589199,0.057255
931.891190,0.057254
932.193182,0.057253
932.495173,0.057251
932.797164,0.057250
933.099155,0.057249
933.401147,0.057248
933.703138,0.057246
934.005129,0.057245
934.307121,0.057244
934.609112,0.057243
934.911103,0.057241
935.213094,0.057240
935.515086,0.057239
935.817077,0.057238
936.119068,0.057237
936.421059,0.057235
936.723051,0.057234
937.025042,0.057233
937.327033,0.057232
937.629024,0.057231
937.931016,0.057229
938.233007,0.057228
938.534998,0.057227
938.836990,0.057226
939.138981,0.057225
939.440972,0.057223
939.742963,0.057222
940.044955,0.057221
940.346946,0.057220
940.648937,0.057219
940.950928,0.057218
941.252920,0.057216
941.554911,0.057215
941.856902,0.057214
942.158893,0.057213
942.460885,0.057212
942.762876,0.057211
943.064867,0.057209
943.366859,0.057208
943.668850,0.057207
943.970841,0.057206
944.272832,0.057205
944.574824,0.057204
944.876815,0.057203
945.178806,0.057201
945.480797,0.057200
945.782789,0.057199
946.084780,0.057198
946.386771,0.057197
946.688762,0.057196
946.990754,0.057195
947.292745,0.057194
947.594736,0.057192
947.896728,0.057191
948.198719,0.057190
948.500710,0.057189
948.802701,0.057188
949.104693,0.057187
949.406684,0.057186
949.708675,0.057185
950.010666,0.057184
950.312658,0.057183
950.614649,0.057182
950.916640,0.057180
951.218632,0.057179
951.520623,0.057178
951.822614,0.057177
952.124605,0.057176
952.426597,0.057175
952.728588,0.057174
953.030579,0.057173
953.332570,0.057172
953.634562,0.057171
953.936553,0.057170
954.238544,0.057169
954.540535,0.057168
954.842527,0.057167
955.144518,0.057166
955.446509,0.057164
955.748501,0.057163
956.050492,0.057162
956.352483,0.057161
956.654474,0.057160
956.956466,0.057159
957.258457,0.057158
957.560448,0.057157
957.862439,0.057156
958.164431,0.057155
958.466422,0.057154
958.768413,0.057153
959.070404,0.057152
959.372396,0.057151
959.674387,0.057150
959.976378,0.057149
960.278370,0.057148
960.580361,0.057147
960.882352,0.057146
961.184343,0.057145
961.486335,0.057144
961.788326,0.057143
962.090317,0.057142
962.392308,0.057141
962.694300,0.057140
962.996291,0.057139
963.298282,0.057138
963.600273,0.057137
963.902265,0.057136
964.204256,0.057135
964.506247,0.057134
964.808239,0.057133
965.110230,0.057132
965.412221,0.057131
965.714212,0.057130
966.016204,0.057129
966.318195,0.057128
966.620186,0.057127
966.922177,0.057126
967.224169,0.057125
967.526160,0.057124
967.828151,0.057123
968.130143,0.057122
968.432134,0.057121
968.734125,0.057121
969.036116,0.057120
969.338108,0.057119
969.640099,0.057118
969.942090,0.057117
970.244081,0.057116
970.546073,0.057115
970.848064,0.057114
971.150055,0.057113
971.452046,0.057112
971.754038,0.057111
972.056029,0.057110
972.358020,0.057109
972.660012,0.057108
972.962003,0.057107
973.263994,0.057106
973.565985,0.057106
973.867977,0.057105
974.169968,0.057104
974.471959,0.057103
974.773950,0.057102
975.075942,0.057101
975.377933,0.057100
975.679924,0.057099
975.981915,0.057098
976.283907,0.057097
976.585898,0.057096
976.887889,0.057096
977.189881,0.057095
977.491872,0.057094
977.793863,0.057093
978.095854,0.057092
978.397846,0.057091
978.699837,0.057090
979.001828,0.057089
979.303819,0.057088
979.605811,0.057088
979.907802,0.057087
980.209793,0.057086
980.511784,0.057085
980.813776,0.057084
981.115767,0.057083
981.417758,0.057082
981.719750,0.057081
982.021741,0.057081
982.323732,0.057080
982.625723,0.057079
982.927715,0.057078
983.229706,0.057077
983.531697,0.057076
983.833688,0.057075
984.135680,0.057074
984.437671,0.057074
984.739662,0.057073
985.041653,0.057072
985.343645,0.057071
985.645636,0.057070
985.947627,0.057069
986.249619,0.057069
986.551610,0.057068
986.853601,0.057067
987.155592,0.057066
987.457584,0.057065
987.759575,0.057064
988.061566,0.057064
988.363557,0.057063
988.665549,0.057062
988.967540,0.057061
989.269531,0.057060
989.571523,0.057059
989.873514,0.057059
990.175505,0.057058
990.477496,0.057057
990.779488,0.057056
991.081479,0.057055
991.383470,0.057054
991.685461,0.057054
991.987453,0.057053
992.289444,0.057052
992.591435,0.057051
992.893426,0.057050
993.195418,0.057050
993.497409,0.057049
993.799400,0.057048
994.101392,0.057047
994.403383,0.057046
994.705374,0.057046
995.007365,0.057045
995.309357,0.057044
995.611348,0.057043
995.913339,0.057042
996.215330,0.057042
996.517322,0.057041
996.819313,0.057040
997.121304,0.057039
997.423295,0.057038
997.725287,0.057038
998.027278,0.057037
998.329269,0.057036
998.631261,0.057035
998.933252,0.057035
999.235243,0.057034
999.537234,0.057033
999.839226,0.057032
1000.141217,0.057031
1000.443208,0.057031
1000.745199,0.057030
1001.047191,0.057029
1001.349182,0.057028
1001.651173,0.057028
1001.953164,0.057027
1002.255156,0.057026
1002.557147,0.057025
1002.859138,0.057025
1003.161130,0.057024
1003.463121,0.057023
1003.765112,0.057022
1004.067103,0.057022
1004.369095,0.057021
1004.671086,0.057020
1004.973077,0.057019
1005.275068,0.057019
1005.577060,0.057018
1005.879051,0.057017
1006.181042,0.057016
1006.483034,0.057016
1006.785025,0.057015
1007.087016,0.057014
1007.389007,0.057013
1007.690999,0.057013
1007.992990,0.057012
1008.294981,0.057011
1008.596972,0.057010
1008.898964,0.057010
1009.200955,0.057009
1009.502946,0.057008
1009.804937,0.057008
1010.106929,0.057007
1010.408920,0.057006
1010.710911,0.057005
1011.012903,0.057005
1011.314894,0.057004
1011.616885,0.057003
1011.918876,0.057003
1012.220868,0.057002
1012.522859,0.057001
1012.824850,0.057000
1013.126841,0.057000
1013.428833,0.056999
1013.730824,0.056998
1014.032815,0.056998
1014.334806,0.056997
1014.636798,0.056996
1014.938789,0.056995
1015.240780,0.056995
1015.542772,0.056994
1015.844763,0.056993
1016.146754,0.056993
1016.448745,0.056992
1016.750737,0.056991
1017.052728,0.056991
1017.354719,0.056990
1017.656710,0.056989
1017.958702,0.056988
1018.260693,0.056988
1018.562684,0.056987
1018.864675,0.056986
1019.166667,0.056986
1019.468658,0.056985
1019.770649,0.056984
1020.072641,0.056984
1020.374632,0.056983
1020.676623,0.056982
1020.978614,0.056982
1021.280606,0.056981
1021.582597,0.056980
1021.884588,0.056980
1022.186579,0.056979
1022.488571,0.056978
1022.790562,0.056978
1023.092553,0.056977
1023.394545,0.056976
1023.696536,0.056976
1023.998527,0.056975
1024.300518,0.056974
1024.602510,0.056974
1024.904501,0.056973
1025.206492,0.056972
1025.508483,0.056972
1025.810475,0.056971
1026.112466,0.056970
1026.414457,0.056970
1026.716448,0.056969
1027.018440,0.056968
1027.320431,0.056968
1027.622422,0.056967
1027.924414,0.056966
1028.226405,0.056966
1028.528396,0.056965
1028.830387,0.056964
1029.132379,0.056964
1029.434370,0.056963
1029.736361,0.056963
1030.038352,0.056962
1030.340344,0.056961
1030.642335,0.056961
1030.944326,0.056960
1031.246317,0.056959
1031.548309,0.056959
1031.850300,0.056958
1032.152291,0.056957
1032.454283,0.056957
1032.756274,0.056956
1033.058265,0.056956
1033.360256,0.056955
1033.662248,0.056954
1033.964239,0.056954
1034.266230,0.056953
1034.568221,0.056952
1034.870213,0.056952
1035.172204,0.056951
1035.474195,0.056951
1035.776186,0.056950
1036.078178,0.056949
1036.380169,0.056949
1036.682160,0.056948
1036.984152,0.056948
1037.286143,0.056947
1037.588134,0.056946
1037.890125,0.056946
1038.192117,0.056945
1038.494108,0.056944
1038.796099,0.056944
1039.098090,0.056943
1039.400082,0.056943
1039.702073,0.056942
1040.004064,0.056941
1040.306056,0.056941
1040.608047,0.056940
1040.910038,0.056940
1041.212029,0.056939
1041.514021,0.056938
1041.816012,0.056938
1042.118003,0.056937
1042.419994,0.056937
1042.721986,0.056936
1043.023977,0.056935
1043.325968,0.056935
1043.627959,0.056934
1043.929951,0.056934
1044.231942,0.056933
1044.533933,0.056933
1044.835925,0.056932
1045.137916,0.056931
1045.439907,0.056931
1045.741898,0.056930
1046.043890,0.056930
1046.345881,0.056929
1046.647872,0.056928
1046.949863,0.056928
1047.251855,0.056927
1047.553846,0.056927
1047.855837,0.056926
1048.157828,0.056926
1048.459820,0.056925
1048.761811,0.056924
1049.063802,0.056924
1049.365794,0.056923
1049.667785,0.056923
1049.969776,0.056922
1050.271767,0.056922
1050.573759,0.056921
1050.875750,0.056920
1051.177741,0.056920
1051.479732,0.056919
1051.781724,0.056919
1052.083715,0.056918
1052.385706,0.056918
1052.687697,0.056917
1052.989689,0.056916
1053.291680,0.056916
1053.593671,0.056915
1053.895663,0.056915
1054.197654,0.056914
1054.499645,0.056914
1054.801636,0.056913
1055.103628,0.056913
1055.405619,0.056912
1055.707610,0.056911
1056.009601,0.056911
1056.311593,0.056910
1056.613584,0.056910
1056.915575,0.056909
1057.217566,0.056909
1057.519558,0.056908
1057.821549,0.056908
1058.123540,0.056907
1058.425532,0.056907
1058.727523,0.056906
1059.029514,0.056905
1059.331505,0.056905
1059.633497,0.056904
1059.935488,0.056904
1060.237479,0.056903
1060.539470,0.056903
1060.841462,0.056902
1061.143453,0.056902
1061.445444,0.056901
1061.747436,0.056901
1062.049427,0.056900
1062.351418,0.056900
1062.653409,0.056899
1062.955401,0.056898
1063.257392,0.056898
1063.559383,0.056897
1063.861374,0.056897
1064.163366,0.056896
1064.465357,0.056896
1064.767348,0.056895
1065.069339,0.056895
1065.371331,0.056894
1065.673322,0.056894
1065.975313,0.056893
1066.277305,0.056893
1066.579296,0.056892
1066.881287,0.056892
1067.183278,0.056891
1067.485270,0.056891
1067.787261,0.056890
1068.089252,0.056890
1068.391243,0.056889
1068.693235,0.056889
1068.995226,0.056888
1069.297217,0.056888
1069.599208,0.056887
1069.901200,0.056887
1070.203191,0.056886
1070.505182,0.056886
1070.807174,0.056885
1071.109165,0.056885
1071.411156,0.056884
1071.713147,0.056884
1072.015139,0.056883
1072.317130,0.056883
1072.619121,0.056882
1072.921112,0.056882
1073.223104,0.056881
1073.525095,0.056881
1073.827086,0.056880
1074.129077,0.056880
1074.431069,0.056879
1074.733060,0.056879
1075.035051,0.056878
1075.337043,0.056878
1075.639034,0.056877
1075.941025,0.056877
1076.243016,0.056876
1076.545008,0.056876
1076.846999,0.056875
1077.148990,0.056875
1077.450981,0.056874
1077.752973,0.056874
1078.054964,0.056873
1078.356955,0.056873
1078.658947,0.056872
1078.960938,0.056872
1079.262929,0.056871
1079.564920,0.056871
1079.866912,0.056870
1080.168903,0.056870
1080.470894,0.056869
1080.772885,0.056869
1081.074877,0.056868
1081.376868,0.056868
1081.678859,0.056867
1081.980850,0.056867
1082.282842,0.056866
1082.584833,0.056866
1082.886824,0.056865
1083.188816,0.056865
1083.490807,0.056864
1083.792798,0.056864
1084.094789,0.056864
1084.396781,0.056863
1084.698772,0.056863
1085.000763,0.056862
1085.302754,0.056862
1085.604746,0.056861
1085.906737,0.056861
1086.208728,0.056860
1086.510719,0.056860
1086.812711,0.056859
1087.114702,0.056859
1087.416693,0.056858
1087.718685,0.056858
1088.020676,0.056857
1088.322667,0.056857
1088.624658,0.056857
1088.926650,0.056856
1089.228641,0.056856
1089.530632,0.056855
1089.832623,0.056855
1090.134615,0.056854
1090.436606,0.056854
1090.738597,0.056853
1091.040588,0.056853
1091.342580,0.056852
1091.644571,0.056852
1091.946562,0.056852
1092.248554,0.056851
1092.550545,0.056851
1092.852536,0.056850
1093.154527,0.056850
1093.456519,0.056849
1093.758510,0.056849
1094.060501,0.056848
1094.362492,0.056848
1094.664484,0.056847
